COUNTER, INTERPOLATED, RAW_CQ, AF3, F7, F3, FC5, T7, P7, O1, O2, P8,T8, FC6, F4, F8, AF4, GYROX, GYROY, TIMESTAMP, MARKER_HARDWARE, ES_TIMESTAMP, FUNC_ID, FUNC_VALUE, MARKER, SYNC_SIGNAL
105,0,1203,4179.23076923077,4219.8717948718,4173.97435897436,4172.69230769231,4185.51282051282,4170.51282051282,4170.25641025641,4216.41025641026,4158.58974358974,4167.17948717949,4175.25641025641,4149.8717948718,4168.58974358974,4174.61538461538,0,0,0.0935693740650938,0,0.062148492783308,0,0,0,0
106,0,3353,4178.58974358974,4214.23076923077,4176.79487179487,4172.17948717949,4178.71794871795,4168.97435897436,4168.07692307692,4219.48717948718,4163.97435897436,4169.10256410256,4182.4358974359,4155.25641025641,4170.64102564103,4178.46153846154,0,0,0.101449594711272,0,0.062148492783308,0,0,0,0
107,0,1320,4175.76923076923,4208.07692307692,4174.48717948718,4172.05128205128,4179.10256410256,4168.97435897436,4170.76923076923,4222.69230769231,4164.35897435897,4172.69230769231,4186.28205128205,4152.30769230769,4168.97435897436,4172.30769230769,0,0,0.10942981535745,0,0.062148492783308,0,0,0,0
108,0,1683,4178.33333333333,4213.71794871795,4177.4358974359,4170.25641025641,4179.48717948718,4169.35897435897,4171.15384615385,4219.8717948718,4160.25641025641,4169.48717948718,4182.94871794872,4155.12820512821,4168.84615384615,4176.15384615385,0,0,0.117410036003628,0,0.062148492783308,0,0,0,0
109,0,1203,4177.05128205128,4219.35897435897,4172.82051282051,4170.76923076923,4179.8717948718,4168.33333333333,4165.38461538462,4216.41025641026,4158.58974358974,4165.64102564103,4178.84615384615,4154.48717948718,4170.64102564103,4178.46153846154,0,0,0.125390256649806,0,0.062148492783308,0,0,0,0
110,0,3353,4179.10256410256,4218.46153846154,4174.10256410256,4176.92307692308,4182.30769230769,4168.97435897436,4167.30769230769,4218.97435897436,4160.64102564103,4178.46153846154,4178.58974358974,4156.15384615385,4175.25641025641,4177.69230769231,0,0,0.133270477295984,0,0.062148492783308,0,0,0,0
111,0,1320,4181.41025641026,4216.79487179487,4176.66666666667,4177.82051282051,4180.25641025641,4170.38461538462,4171.66666666667,4218.58974358974,4159.74358974359,4182.5641025641,4181.53846153846,4156.79487179487,4176.66666666667,4177.4358974359,0,0,0.141150697942162,0,0.062148492783308,0,0,0,0
112,0,1683,4174.35897435897,4216.79487179487,4170.64102564103,4173.97435897436,4178.84615384615,4175.12820512821,4171.28205128205,4216.41025641026,4161.66666666667,4170.12820512821,4182.94871794872,4154.35897435897,4174.74358974359,4176.53846153846,0,0,0.14893091858834,0,0.062148492783308,0,0,0,0
113,0,1203,4168.97435897436,4216.28205128205,4171.02564102564,4172.05128205128,4180.12820512821,4179.35897435897,4170.89743589744,4218.33333333333,4163.84615384615,4166.15384615385,4182.5641025641,4157.5641025641,4171.15384615385,4174.48717948718,0,0,0.156711139234519,0,0.062148492783308,0,0,0,0
114,0,3353,4166.66666666667,4212.17948717949,4169.10256410256,4169.35897435897,4175.51282051282,4173.97435897436,4168.97435897436,4218.71794871795,4162.82051282051,4167.30769230769,4175.12820512821,4150.64102564103,4161.79487179487,4165.64102564103,0,0,0.164591359880697,0,0.062148492783308,0,0,0,0
115,0,1320,4162.5641025641,4206.92307692308,4170.51282051282,4167.94871794872,4168.58974358974,4169.8717948718,4168.84615384615,4216.02564102564,4156.28205128205,4154.35897435897,4171.53846153846,4147.05128205128,4149.35897435897,4165.64102564103,0,0,0.172471580526875,0,0.062148492783308,0,0,0,0
116,0,1683,4162.05128205128,4210.12820512821,4175.12820512821,4169.8717948718,4172.17948717949,4177.05128205128,4172.17948717949,4215.25641025641,4155.25641025641,4153.58974358974,4174.74358974359,4152.5641025641,4150.12820512821,4168.46153846154,0,0,0.180251801173053,0,0.062148492783308,0,0,0,0
117,0,1203,4166.41025641026,4216.92307692308,4173.84615384615,4172.30769230769,4175.76923076923,4178.20512820513,4171.53846153846,4216.66666666667,4165.38461538462,4179.8717948718,4177.94871794872,4153.84615384615,4167.5641025641,4167.4358974359,0,0,0.188032021819231,0,0.062148492783308,0,0,0,0
118,0,3353,4171.15384615385,4217.5641025641,4175,4176.41025641026,4169.48717948718,4168.07692307692,4166.79487179487,4215.76923076923,4164.10256410256,4180.38461538462,4180.89743589744,4156.66666666667,4178.07692307692,4170.89743589744,0,0,0.195912242465409,0,0.062148492783308,0,0,0,0
119,0,1320,4169.8717948718,4217.4358974359,4172.05128205128,4178.71794871795,4169.74358974359,4166.66666666667,4167.17948717949,4213.84615384615,4158.58974358974,4164.48717948718,4179.10256410256,4154.48717948718,4173.07692307692,4169.10256410256,0,0,0.203892463111587,0,0.062148492783308,0,0,0,0
120,0,1683,4167.5641025641,4217.5641025641,4172.82051282051,4173.07692307692,4177.4358974359,4173.20512820513,4168.97435897436,4213.58974358974,4163.58974358974,4175.64102564103,4178.07692307692,4153.97435897436,4166.02564102564,4168.20512820513,0,0,0.211872683757765,0,0.062148492783308,0,0,0,0
121,0,1203,4165.64102564103,4217.05128205128,4174.48717948718,4170,4177.94871794872,4174.35897435897,4168.20512820513,4216.79487179487,4168.84615384615,4184.23076923077,4181.92307692308,4157.17948717949,4167.30769230769,4170.76923076923,0,0,0.219652904403943,0,0.062148492783308,0,0,0,0
122,0,3353,4164.74358974359,4219.74358974359,4170,4172.94871794872,4171.92307692308,4172.69230769231,4169.23076923077,4216.53846153846,4166.02564102564,4177.94871794872,4182.69230769231,4155.12820512821,4172.94871794872,4170.12820512821,0,0,0.227533125050122,0,0.062148492783308,0,0,0,0
123,0,1320,4166.79487179487,4216.02564102564,4172.94871794872,4171.28205128205,4170.76923076923,4172.30769230769,4166.53846153846,4208.20512820513,4161.92307692308,4175.89743589744,4178.07692307692,4153.07692307692,4170,4170.38461538462,0,0,0.2355133456963,0,0.062148492783308,0,0,0,0
124,0,1683,4161.15384615385,4207.17948717949,4169.74358974359,4166.15384615385,4171.02564102564,4169.61538461538,4161.15384615385,4200.12820512821,4161.15384615385,4170.64102564103,4176.53846153846,4147.82051282051,4160.25641025641,4167.30769230769,0,0,0.243393566342478,0,0.062148492783308,0,0,0,0
125,0,1203,4160.25641025641,4211.02564102564,4168.97435897436,4165.51282051282,4167.17948717949,4169.61538461538,4163.84615384615,4199.61538461538,4161.79487179487,4167.82051282051,4176.79487179487,4149.23076923077,4157.82051282051,4166.66666666667,0,0,0.251173786988656,0,0.062148492783308,0,0,0,0
126,0,3353,4170.76923076923,4221.79487179487,4174.23076923077,4169.10256410256,4168.33333333333,4173.20512820513,4171.41025641026,4207.30769230769,4168.84615384615,4179.35897435897,4175.64102564103,4155.38461538462,4169.23076923077,4172.17948717949,0,0,0.259054007634834,0,0.062148492783308,0,0,0,0
127,0,54,4173.07692307692,4220.76923076923,4172.5641025641,4172.4358974359,4172.05128205128,4171.66666666667,4166.53846153846,4211.66666666667,4171.02564102564,4180,4178.46153846154,4154.10256410256,4178.84615384615,4172.4358974359,0,0,0.267034228281012,0,0.062148492783308,0,0,0,0
0,0,1008,4168.33333333333,4213.46153846154,4174.35897435897,4170.89743589744,4168.84615384615,4168.20512820513,4160.51282051282,4207.17948717949,4167.30769230769,4168.97435897436,4183.07692307692,4155.64102564103,4175,4172.94871794872,0,0,0.27501444892719,0,0.062148492783308,0,0,0,0
1,0,3277,4162.4358974359,4213.20512820513,4167.69230769231,4167.05128205128,4165.89743589744,4170.12820512821,4164.48717948718,4201.53846153846,4170.25641025641,4172.5641025641,4181.41025641026,4153.07692307692,4166.02564102564,4170,0,0,0.282994669573368,0,0.062148492783308,0,0,0,0
2,0,2341,4160.76923076923,4217.30769230769,4164.23076923077,4165.89743589744,4166.53846153846,4172.05128205128,4164.61538461538,4198.46153846154,4169.10256410256,4175.51282051282,4174.23076923077,4151.66666666667,4162.94871794872,4164.74358974359,0,0,0.290874890219546,0,0.062148492783308,0,0,0,0
3,0,3081,4167.5641025641,4218.84615384615,4174.35897435897,4168.58974358974,4169.48717948718,4170,4161.53846153846,4201.53846153846,4166.28205128205,4175.12820512821,4173.33333333333,4154.74358974359,4167.17948717949,4169.35897435897,0,0,0.298755110865724,0,0.062148492783308,0,0,0,0
4,0,3555,4170.76923076923,4216.53846153846,4174.48717948718,4171.41025641026,4172.4358974359,4172.82051282051,4164.23076923077,4207.82051282051,4169.61538461538,4178.33333333333,4177.5641025641,4152.17948717949,4172.82051282051,4172.94871794872,0,0,0.306535331511903,0,0.062148492783308,0,0,0,0
5,0,3179,4169.10256410256,4217.5641025641,4172.30769230769,4169.74358974359,4172.4358974359,4183.84615384615,4170.25641025641,4208.58974358974,4171.15384615385,4172.17948717949,4177.17948717949,4155.25641025641,4171.02564102564,4171.41025641026,0,0,0.314315552158081,0,0.062148492783308,0,0,0,0
6,0,2972,4165.76923076923,4217.05128205128,4168.46153846154,4168.46153846154,4168.20512820513,4183.84615384615,4168.46153846154,4206.28205128205,4167.05128205128,4167.4358974359,4173.07692307692,4154.35897435897,4164.8717948718,4166.92307692308,0,0,0.322195772804259,0,0.062148492783308,0,0,0,0
7,0,2900,4164.10256410256,4213.84615384615,4167.94871794872,4171.15384615385,4165.64102564103,4175.51282051282,4166.66666666667,4212.4358974359,4166.92307692308,4168.84615384615,4175.76923076923,4150.89743589744,4165.25641025641,4168.97435897436,0,0,0.330175993450437,0,0.062148492783308,0,0,0,0
8,0,2584,4166.66666666667,4220.89743589744,4175.12820512821,4172.4358974359,4168.46153846154,4179.48717948718,4171.53846153846,4219.61538461538,4172.30769230769,4168.07692307692,4173.33333333333,4155.12820512821,4169.8717948718,4174.23076923077,0,0,0.338156214096615,0,0.062148492783308,0,0,0,0
9,0,3547,4171.79487179487,4233.46153846154,4175.12820512821,4175.76923076923,4173.46153846154,4187.94871794872,4174.10256410256,4213.71794871795,4172.30769230769,4171.02564102564,4166.02564102564,4152.82051282051,4173.46153846154,4169.61538461538,0,0,0.346036434742793,0,0.062148492783308,0,0,0,0
10,0,3364,4182.30769230769,4242.4358974359,4176.92307692308,4182.4358974359,4174.61538461538,4181.53846153846,4170.64102564103,4206.15384615385,4167.5641025641,4172.5641025641,4174.48717948718,4154.61538461538,4176.66666666667,4174.8717948718,0,0,0.353916655388971,0,0.062148492783308,0,0,0,0
11,0,1322,4186.28205128205,4247.17948717949,4174.74358974359,4183.07692307692,4172.82051282051,4171.66666666667,4163.46153846154,4203.58974358974,4163.84615384615,4167.05128205128,4184.61538461538,4157.30769230769,4182.4358974359,4182.69230769231,0,0,0.361796876035149,0,0.062148492783308,0,0,0,0
12,0,1678,4182.69230769231,4248.58974358974,4170.51282051282,4181.41025641026,4170.76923076923,4169.23076923077,4161.92307692308,4200.25641025641,4157.05128205128,4164.8717948718,4178.46153846154,4151.28205128205,4188.84615384615,4177.05128205128,0,0,0.369577096681327,0,0.062148492783308,0,0,0,0
13,0,1210,4182.4358974359,4249.48717948718,4174.35897435897,4179.74358974359,4168.84615384615,4170.64102564103,4166.28205128205,4198.84615384615,4150.76923076923,4162.5641025641,4173.33333333333,4151.02564102564,4181.02564102564,4176.66666666667,0,0,0.377357317327505,0,0.062148492783308,0,0,0,0
14,0,3364,4182.82051282051,4246.02564102564,4171.79487179487,4177.82051282051,4170.25641025641,4178.58974358974,4171.41025641026,4201.02564102564,4157.4358974359,4158.33333333333,4178.84615384615,4152.5641025641,4170.64102564103,4179.35897435897,0,0,0.385237537973684,0,0.062148492783308,0,0,0,0
15,0,1322,4182.82051282051,4237.82051282051,4172.30769230769,4176.92307692308,4170.89743589744,4182.82051282051,4170,4201.53846153846,4168.07692307692,4160,4181.02564102564,4155,4175.51282051282,4177.94871794872,0,0,0.393217758619862,0,0.062148492783308,0,0,0,0
16,0,0,4177.94871794872,4233.20512820513,4172.17948717949,4174.8717948718,4169.10256410256,4177.05128205128,4169.23076923077,4204.61538461538,4169.35897435897,4167.05128205128,4177.4358974359,4152.94871794872,4183.46153846154,4175.76923076923,0,0,0.40119797926604,0,0.062148492783308,0,0,0,0
17,0,0,4173.33333333333,4234.35897435897,4168.33333333333,4170.12820512821,4168.07692307692,4172.5641025641,4173.33333333333,4212.4358974359,4168.84615384615,4171.79487179487,4175,4148.97435897436,4177.30769230769,4176.02564102564,0,0,0.409178199912218,0,0.062148492783308,0,0,0,0
18,0,0,4176.53846153846,4230.89743589744,4172.69230769231,4169.61538461538,4167.30769230769,4173.07692307692,4169.74358974359,4213.20512820513,4169.74358974359,4168.20512820513,4174.23076923077,4152.94871794872,4169.10256410256,4176.66666666667,0,0,0.417058420558396,0,0.062148492783308,0,0,0,0
19,0,0,4174.35897435897,4225.38461538462,4171.79487179487,4172.05128205128,4167.5641025641,4174.10256410256,4166.66666666667,4208.33333333333,4170.51282051282,4170,4174.35897435897,4152.82051282051,4170.51282051282,4172.05128205128,0,0,0.424938641204574,0,0.062148492783308,0,0,0,0
20,0,0,4168.07692307692,4226.28205128205,4171.28205128205,4168.71794871795,4167.30769230769,4173.46153846154,4169.8717948718,4207.30769230769,4171.92307692308,4179.10256410256,4179.48717948718,4153.84615384615,4170.12820512821,4174.48717948718,0,0,0.432718861850752,0,0.062148492783308,0,0,0,0
21,0,0,4166.66666666667,4226.79487179487,4171.15384615385,4165.64102564103,4166.79487179487,4171.79487179487,4163.33333333333,4204.74358974359,4173.07692307692,4179.35897435897,4178.07692307692,4153.07692307692,4163.07692307692,4173.97435897436,0,0,0.44049908249693,0,0.062148492783308,0,0,0,0
22,0,0,4167.69230769231,4221.66666666667,4168.97435897436,4168.71794871795,4168.84615384615,4174.23076923077,4154.10256410256,4203.20512820513,4171.66666666667,4168.97435897436,4172.17948717949,4149.8717948718,4160.12820512821,4169.23076923077,0,0,0.448379303143108,0,0.062148492783308,0,0,0,0
23,0,0,4166.79487179487,4218.07692307692,4174.35897435897,4170.51282051282,4170.51282051282,4181.66666666667,4161.41025641026,4205.25641025641,4171.15384615385,4164.8717948718,4173.97435897436,4152.82051282051,4162.4358974359,4173.84615384615,0,0,0.456359523789287,0,0.062148492783308,0,0,0,0
24,0,0,4163.58974358974,4218.20512820513,4169.8717948718,4168.58974358974,4170.12820512821,4185.38461538462,4170.76923076923,4203.07692307692,4171.92307692308,4173.20512820513,4172.69230769231,4147.30769230769,4159.35897435897,4172.30769230769,0,0,0.464339744435465,0,0.062148492783308,0,0,0,0
25,0,0,4165.76923076923,4221.66666666667,4167.4358974359,4169.74358974359,4169.10256410256,4181.28205128205,4168.33333333333,4201.28205128205,4171.15384615385,4175.76923076923,4169.8717948718,4145.89743589744,4152.05128205128,4168.58974358974,0,0,0.472319965081643,0,0.062148492783308,0,0,0,0
26,0,0,4165,4223.20512820513,4172.69230769231,4172.69230769231,4166.02564102564,4174.48717948718,4167.69230769231,4205,4170.76923076923,4165.64102564103,4174.10256410256,4153.46153846154,4154.74358974359,4170.64102564103,0,0,0.480200185727821,0,0.062148492783308,0,0,0,0
27,0,0,4155.12820512821,4221.41025641026,4169.74358974359,4169.61538461538,4165.38461538462,4170.64102564103,4170.64102564103,4205.25641025641,4171.53846153846,4160.64102564103,4178.71794871795,4153.07692307692,4159.35897435897,4168.46153846154,0,0,0.488080406373999,0,0.062148492783308,0,0,0,0
28,0,0,4155.25641025641,4217.05128205128,4169.8717948718,4166.66666666667,4166.41025641026,4171.02564102564,4166.15384615385,4201.53846153846,4164.23076923077,4162.4358974359,4172.4358974359,4151.66666666667,4152.30769230769,4170.25641025641,0,0,0.495860627020177,0,0.062148492783308,0,0,0,0
29,0,0,4157.17948717949,4216.28205128205,4165.25641025641,4166.66666666667,4162.05128205128,4170.64102564103,4157.17948717949,4195.12820512821,4153.97435897436,4162.82051282051,4166.28205128205,4146.66666666667,4144.8717948718,4168.20512820513,0,0,0.503640847666355,0,0.062148492783308,0,0,0,0
30,0,0,4147.30769230769,4211.53846153846,4163.84615384615,4160.64102564103,4154.48717948718,4166.92307692308,4152.82051282051,4185.64102564103,4151.02564102564,4152.05128205128,4166.02564102564,4142.05128205128,4138.58974358974,4159.35897435897,0,0,0.511521068312533,0,0.062148492783308,0,0,0,0
31,0,0,4137.69230769231,4201.02564102564,4167.4358974359,4153.07692307692,4151.41025641026,4164.8717948718,4153.58974358974,4180.76923076923,4148.71794871795,4137.05128205128,4156.53846153846,4141.28205128205,4125.64102564103,4157.82051282051,0,0,0.519501288958711,0,0.062148492783308,0,0,0,0
32,0,0,4141.02564102564,4204.48717948718,4162.69230769231,4158.71794871795,4155.38461538462,4165.76923076923,4153.84615384615,4182.30769230769,4146.41025641026,4132.5641025641,4150,4138.58974358974,4122.5641025641,4159.48717948718,0,0,0.527481509604889,0,0.062148492783308,0,0,0,0
33,0,0,4149.48717948718,4215.51282051282,4165.12820512821,4168.33333333333,4156.41025641026,4167.94871794872,4153.84615384615,4183.07692307692,4151.28205128205,4136.66666666667,4157.5641025641,4142.4358974359,4133.33333333333,4162.17948717949,0,0,0.535461730251067,0,0.535461723804474,0,0,0,0
34,0,0,4146.53846153846,4216.66666666667,4165.12820512821,4170.25641025641,4157.69230769231,4169.74358974359,4155.12820512821,4181.92307692308,4156.66666666667,4143.07692307692,4165.51282051282,4143.84615384615,4139.74358974359,4162.5641025641,0,0,0.543341950897246,0,0.535461723804474,0,0,0,0
35,0,0,4143.71794871795,4215.64102564103,4163.84615384615,4168.71794871795,4163.07692307692,4167.82051282051,4153.84615384615,4183.71794871795,4156.92307692308,4149.74358974359,4169.61538461538,4143.71794871795,4143.58974358974,4165.89743589744,0,0,0.551222171543424,0,0.535461723804474,0,0,0,0
36,0,0,4146.28205128205,4218.84615384615,4168.58974358974,4168.84615384615,4164.61538461538,4168.20512820513,4158.97435897436,4192.17948717949,4158.71794871795,4156.41025641026,4170.12820512821,4146.53846153846,4148.97435897436,4170.12820512821,0,0,0.559002392189602,0,0.535461723804474,0,0,0,0
37,0,0,4146.02564102564,4215.64102564103,4165.12820512821,4170,4160.76923076923,4171.53846153846,4167.69230769231,4199.8717948718,4158.97435897436,4156.66666666667,4166.79487179487,4144.35897435897,4147.17948717949,4166.15384615385,0,0,0.56678261283578,0,0.535461723804474,0,0,0,0
38,0,0,4146.53846153846,4209.35897435897,4165.12820512821,4168.07692307692,4155.12820512821,4170.64102564103,4161.02564102564,4196.41025641026,4153.58974358974,4153.07692307692,4169.74358974359,4147.05128205128,4139.35897435897,4164.23076923077,0,0,0.574662833481958,0,0.535461723804474,0,0,0,0
39,0,0,4147.17948717949,4212.5641025641,4166.41025641026,4166.66666666667,4154.8717948718,4168.33333333333,4151.79487179487,4187.4358974359,4152.94871794872,4149.8717948718,4167.69230769231,4146.92307692308,4137.69230769231,4162.17948717949,0,0,0.582543054128136,0,0.535461723804474,0,0,0,0
40,0,0,4149.8717948718,4218.20512820513,4168.84615384615,4169.10256410256,4162.94871794872,4170.51282051282,4159.74358974359,4184.61538461538,4156.02564102564,4149.74358974359,4157.5641025641,4146.53846153846,4145.51282051282,4165.12820512821,0,0,0.590323274774314,0,0.535461723804474,0,0,0,0
41,0,0,4155,4215.76923076923,4170.51282051282,4170.25641025641,4164.48717948718,4172.69230769231,4168.84615384615,4185.12820512821,4152.30769230769,4149.10256410256,4160,4151.66666666667,4152.30769230769,4170.51282051282,0,0,0.598103495420492,0,0.535461723804474,0,0,0,0
42,0,0,4154.61538461538,4211.92307692308,4166.28205128205,4168.58974358974,4156.28205128205,4172.30769230769,4169.23076923077,4182.82051282051,4150,4143.58974358974,4170.76923076923,4150.76923076923,4152.82051282051,4168.71794871795,0,0,0.60598371606667,0,0.535461723804474,0,0,0,0
43,0,0,4152.5641025641,4212.69230769231,4172.69230769231,4163.84615384615,4153.58974358974,4172.69230769231,4172.5641025641,4185,4156.41025641026,4151.79487179487,4172.17948717949,4154.61538461538,4152.4358974359,4172.17948717949,0,0,0.613963936712849,0,0.535461723804474,0,0,0,0
44,0,0,4150.12820512821,4211.66666666667,4173.58974358974,4160.38461538462,4157.17948717949,4171.41025641026,4172.82051282051,4194.8717948718,4161.02564102564,4169.23076923077,4169.74358974359,4155.76923076923,4155.89743589744,4172.30769230769,0,0,0.621944157359027,0,0.535461723804474,0,0,0,0
45,0,0,4151.28205128205,4211.66666666667,4170.12820512821,4165.25641025641,4156.79487179487,4171.02564102564,4168.07692307692,4202.30769230769,4163.71794871795,4177.05128205128,4171.41025641026,4154.48717948718,4160.51282051282,4169.23076923077,0,0,0.629724378005205,0,0.535461723804474,0,0,0,0
46,0,0,4158.07692307692,4214.74358974359,4176.15384615385,4170.89743589744,4153.84615384615,4173.97435897436,4169.35897435897,4199.35897435897,4166.92307692308,4172.82051282051,4170.76923076923,4161.15384615385,4165.25641025641,4171.66666666667,0,0,0.637604598651383,0,0.535461723804474,0,0,0,0
47,0,0,4157.94871794872,4215.51282051282,4172.94871794872,4167.82051282051,4154.23076923077,4173.33333333333,4170.51282051282,4194.74358974359,4169.23076923077,4179.48717948718,4171.15384615385,4160,4171.79487179487,4169.8717948718,0,0,0.645484819297561,0,0.535461723804474,0,0,0,0
48,0,0,4156.28205128205,4217.17948717949,4171.79487179487,4168.46153846154,4157.94871794872,4176.41025641026,4170.89743589744,4200.38461538462,4171.79487179487,4192.69230769231,4173.46153846154,4158.84615384615,4173.07692307692,4172.5641025641,0,0,0.653265039943739,0,0.535461723804474,0,0,0,0
49,0,0,4156.02564102564,4217.17948717949,4173.84615384615,4168.84615384615,4160.64102564103,4187.30769230769,4174.8717948718,4201.15384615385,4167.05128205128,4184.8717948718,4171.28205128205,4158.97435897436,4171.66666666667,4174.74358974359,0,0,0.661045260589917,0,0.661045253276825,0,0,0,0
50,0,0,4151.15384615385,4215.25641025641,4169.23076923077,4160.51282051282,4155.12820512821,4183.58974358974,4174.35897435897,4191.15384615385,4155.64102564103,4165.89743589744,4168.84615384615,4154.35897435897,4170.76923076923,4166.79487179487,0,0,0.668925481236095,0,0.661045253276825,0,0,0,0
51,0,0,4150,4217.17948717949,4169.10256410256,4160.25641025641,4150.25641025641,4172.69230769231,4169.61538461538,4192.82051282051,4153.71794871795,4163.58974358974,4168.46153846154,4154.61538461538,4165.64102564103,4165.51282051282,0,0,0.676905701882273,0,0.661045253276825,0,0,0,0
52,0,0,4152.05128205128,4213.46153846154,4167.94871794872,4170.64102564103,4156.41025641026,4177.69230769231,4169.35897435897,4202.82051282051,4161.41025641026,4176.41025641026,4169.10256410256,4152.05128205128,4163.46153846154,4167.17948717949,0,0,0.684885922528451,0,0.661045253276825,0,0,0,0
53,0,0,4151.79487179487,4204.10256410256,4171.41025641026,4168.46153846154,4157.5641025641,4179.74358974359,4171.28205128205,4202.17948717949,4162.30769230769,4172.94871794872,4170,4153.20512820513,4162.82051282051,4167.30769230769,0,0,0.69266614317463,0,0.661045253276825,0,0,0,0
54,0,0,4149.10256410256,4208.33333333333,4172.69230769231,4158.71794871795,4147.30769230769,4172.05128205128,4170.64102564103,4198.97435897436,4160.89743589744,4165.25641025641,4169.35897435897,4154.10256410256,4161.28205128205,4167.69230769231,0,0,0.700546363820808,0,0.661045253276825,0,0,0,0
55,0,0,4151.53846153846,4219.61538461538,4168.07692307692,4158.33333333333,4145.76923076923,4175.25641025641,4168.84615384615,4199.74358974359,4163.46153846154,4175.25641025641,4168.71794871795,4149.61538461538,4163.71794871795,4167.82051282051,0,0,0.708426584466986,0,0.661045253276825,0,0,0,0
56,0,0,4154.10256410256,4213.97435897436,4172.17948717949,4159.48717948718,4153.84615384615,4179.8717948718,4168.46153846154,4197.69230769231,4164.8717948718,4182.17948717949,4171.79487179487,4154.8717948718,4164.23076923077,4170.25641025641,0,0,0.716206805113164,0,0.661045253276825,0,0,0,0
57,0,0,4145.76923076923,4200.89743589744,4168.33333333333,4155.89743589744,4153.58974358974,4177.82051282051,4170.12820512821,4197.69230769231,4167.17948717949,4176.15384615385,4171.53846153846,4156.02564102564,4156.53846153846,4165.64102564103,0,0,0.723987025759342,0,0.661045253276825,0,0,0,0
58,0,0,4143.97435897436,4197.82051282051,4165.12820512821,4156.53846153846,4148.46153846154,4181.92307692308,4171.15384615385,4200.89743589744,4168.20512820513,4167.5641025641,4165.25641025641,4151.02564102564,4150.25641025641,4163.58974358974,0,0,0.73186724640552,0,0.661045253276825,0,0,0,0
59,0,0,4153.20512820513,4201.28205128205,4169.61538461538,4159.61538461538,4152.82051282051,4184.10256410256,4170.12820512821,4199.74358974359,4168.33333333333,4170.76923076923,4164.61538461538,4151.02564102564,4153.97435897436,4170.25641025641,0,0,0.739847467051698,0,0.661045253276825,0,0,0,0
60,0,0,4150.12820512821,4199.61538461538,4169.23076923077,4157.4358974359,4156.66666666667,4177.69230769231,4169.23076923077,4198.20512820513,4168.84615384615,4174.48717948718,4169.23076923077,4151.79487179487,4156.41025641026,4167.4358974359,0,0,0.747827687697876,0,0.661045253276825,0,0,0,0
61,0,0,4145.51282051282,4200.51282051282,4172.5641025641,4153.71794871795,4154.74358974359,4179.8717948718,4170.25641025641,4200.51282051282,4168.20512820513,4171.41025641026,4169.35897435897,4151.79487179487,4158.71794871795,4163.33333333333,0,0,0.755607908344054,0,0.661045253276825,0,0,0,0
62,0,0,4149.35897435897,4207.94871794872,4171.28205128205,4156.92307692308,4156.41025641026,4186.66666666667,4171.02564102564,4195.64102564103,4167.4358974359,4170.38461538462,4166.53846153846,4146.79487179487,4166.41025641026,4166.02564102564,0,0,0.763488128990233,0,0.661045253276825,0,0,0,0
63,0,0,4155.51282051282,4210.25641025641,4172.82051282051,4161.79487179487,4155.38461538462,4180.64102564103,4169.35897435897,4185.76923076923,4165,4170.76923076923,4168.58974358974,4149.48717948718,4163.33333333333,4171.92307692308,0,0,0.771368349636411,0,0.661045253276825,0,0,0,0
64,0,985,4157.05128205128,4207.5641025641,4177.30769230769,4163.20512820513,4154.35897435897,4176.28205128205,4169.61538461538,4190.76923076923,4167.5641025641,4173.33333333333,4173.07692307692,4153.20512820513,4157.69230769231,4172.69230769231,0,0,0.779148570282589,0,0.661045253276825,0,0,0,0
65,0,3291,4151.53846153846,4205,4172.17948717949,4160,4157.82051282051,4181.28205128205,4171.02564102564,4198.58974358974,4171.02564102564,4175.76923076923,4168.71794871795,4149.35897435897,4160,4167.17948717949,0,0,0.786928790928767,0,0.786928772926331,0,0,0,0
66,0,2343,4149.61538461538,4202.4358974359,4174.48717948718,4157.30769230769,4156.53846153846,4180.64102564103,4170.89743589744,4191.02564102564,4169.10256410256,4174.61538461538,4163.97435897436,4151.41025641026,4159.61538461538,4168.46153846154,0,0,0.794809011574945,0,0.786928772926331,0,0,0,0
67,0,3088,4150.51282051282,4202.17948717949,4173.20512820513,4159.35897435897,4154.8717948718,4175.51282051282,4170.25641025641,4183.07692307692,4168.20512820513,4171.79487179487,4166.28205128205,4149.23076923077,4155.51282051282,4167.05128205128,0,0,0.802789232221123,0,0.786928772926331,0,0,0,0
68,0,3556,4149.35897435897,4205,4167.5641025641,4157.30769230769,4156.15384615385,4178.07692307692,4167.05128205128,4185.76923076923,4170.76923076923,4166.79487179487,4169.61538461538,4147.17948717949,4154.35897435897,4161.41025641026,0,0,0.810769452867301,0,0.786928772926331,0,0,0,0
69,0,3179,4142.30769230769,4203.07692307692,4166.41025641026,4150.76923076923,4154.23076923077,4183.07692307692,4159.23076923077,4185,4170.89743589744,4167.5641025641,4169.8717948718,4148.97435897436,4149.61538461538,4160,0,0,0.818749673513479,0,0.786928772926331,0,0,0,0
70,0,3070,4139.23076923077,4194.8717948718,4163.58974358974,4150.38461538462,4152.82051282051,4180.12820512821,4155.38461538462,4184.74358974359,4172.05128205128,4180.76923076923,4168.58974358974,4144.35897435897,4151.28205128205,4160.38461538462,0,0,0.826629894159657,0,0.786928772926331,0,0,0,0
71,0,2902,4149.8717948718,4201.15384615385,4169.23076923077,4156.15384615385,4156.79487179487,4176.53846153846,4164.35897435897,4190.51282051282,4174.35897435897,4181.02564102564,4171.41025641026,4148.33333333333,4163.20512820513,4167.82051282051,0,0,0.834510114805835,0,0.786928772926331,0,0,0,0
72,0,2589,4149.74358974359,4210.76923076923,4166.92307692308,4157.17948717949,4157.4358974359,4174.61538461538,4166.53846153846,4181.66666666667,4164.61538461538,4160.64102564103,4168.33333333333,4148.71794871795,4161.28205128205,4166.66666666667,0,0,0.842290335452014,0,0.786928772926331,0,0,0,0
73,0,3556,4143.20512820513,4206.02564102564,4161.02564102564,4153.33333333333,4153.84615384615,4171.15384615385,4155.25641025641,4167.05128205128,4152.05128205128,4151.66666666667,4159.35897435897,4140.38461538462,4147.05128205128,4160.38461538462,0,0,0.850070556098192,0,0.786928772926331,0,0,0,0
74,0,3370,4150,4200.64102564103,4166.15384615385,4155.12820512821,4151.92307692308,4170.64102564103,4154.48717948718,4166.02564102564,4149.35897435897,4153.97435897436,4159.10256410256,4142.69230769231,4145.89743589744,4165.51282051282,0,0,0.85795077674437,0,0.786928772926331,0,0,0,0
75,0,1324,4166.41025641026,4217.17948717949,4169.61538461538,4168.71794871795,4156.28205128205,4173.97435897436,4162.17948717949,4171.41025641026,4151.02564102564,4156.92307692308,4166.66666666667,4151.53846153846,4167.4358974359,4172.5641025641,0,0,0.865930997390548,0,0.786928772926331,0,0,0,0
76,0,1687,4176.66666666667,4238.71794871795,4173.97435897436,4181.02564102564,4161.53846153846,4174.48717948718,4161.02564102564,4173.71794871795,4153.07692307692,4167.82051282051,4176.79487179487,4159.61538461538,4185.38461538462,4178.71794871795,0,0,0.873911218036726,0,0.786928772926331,0,0,0,0
77,0,1204,4168.71794871795,4233.84615384615,4172.05128205128,4179.35897435897,4157.30769230769,4168.58974358974,4155.51282051282,4171.92307692308,4154.61538461538,4172.69230769231,4181.66666666667,4154.8717948718,4182.30769230769,4177.4358974359,0,0,0.881891438682904,0,0.786928772926331,0,0,0,0
78,0,3370,4166.79487179487,4226.02564102564,4171.79487179487,4178.46153846154,4152.17948717949,4167.30769230769,4155.51282051282,4171.53846153846,4154.8717948718,4173.07692307692,4184.61538461538,4152.17948717949,4189.48717948718,4178.46153846154,0,0,0.889771659329082,0,0.786928772926331,0,0,0,0
79,0,1324,4185.12820512821,4243.84615384615,4179.10256410256,4185.38461538462,4152.30769230769,4170.64102564103,4157.5641025641,4178.20512820513,4155.89743589744,4182.4358974359,4194.48717948718,4163.33333333333,4208.84615384615,4187.69230769231,0,0,0.89765187997526,0,0.786928772926331,0,0,0,0
80,0,1687,4194.10256410256,4261.66666666667,4175,4188.71794871795,4157.05128205128,4170.38461538462,4156.02564102564,4185.89743589744,4159.8717948718,4182.5641025641,4198.97435897436,4161.15384615385,4208.84615384615,4186.02564102564,0,0,0.905432100621438,0,0.786928772926331,0,0,0,0
81,0,1204,4186.53846153846,4258.20512820513,4173.20512820513,4185.51282051282,4160.12820512821,4172.30769230769,4156.53846153846,4186.15384615385,4163.46153846154,4180.76923076923,4191.02564102564,4156.41025641026,4197.5641025641,4181.28205128205,0,0,0.913212321267617,0,0.913212299346924,0,0,0,0
82,0,3370,4180,4243.20512820513,4172.5641025641,4179.61538461538,4160.64102564103,4180.38461538462,4163.33333333333,4185.51282051282,4168.46153846154,4195,4186.02564102564,4159.23076923077,4196.92307692308,4181.92307692308,0,0,0.921092541913795,0,0.913212299346924,0,0,0,0
83,0,1324,4174.61538461538,4227.94871794872,4170.64102564103,4171.66666666667,4163.46153846154,4183.46153846154,4166.02564102564,4188.97435897436,4171.28205128205,4197.69230769231,4190.25641025641,4161.53846153846,4194.74358974359,4180.89743589744,0,0,0.929072762559973,0,0.913212299346924,0,0,0,0
84,0,1687,4165.38461538462,4213.84615384615,4175.12820512821,4162.82051282051,4160.76923076923,4181.15384615385,4162.82051282051,4190,4167.17948717949,4177.05128205128,4188.97435897436,4162.5641025641,4181.66666666667,4177.30769230769,0,0,0.937052983206151,0,0.913212299346924,0,0,0,0
85,0,1204,4157.4358974359,4206.53846153846,4165.51282051282,4161.15384615385,4156.15384615385,4183.20512820513,4164.8717948718,4188.58974358974,4165.51282051282,4174.74358974359,4181.92307692308,4154.74358974359,4171.66666666667,4169.74358974359,0,0,0.945033203852329,0,0.913212299346924,0,0,0,0
86,0,3370,4155.64102564103,4202.94871794872,4161.02564102564,4158.33333333333,4151.79487179487,4181.79487179487,4170.89743589744,4187.05128205128,4167.69230769231,4187.17948717949,4178.46153846154,4149.23076923077,4164.8717948718,4166.66666666667,0,0,0.952913424498507,0,0.913212299346924,0,0,0,0
87,0,1324,4156.28205128205,4201.66666666667,4168.84615384615,4153.71794871795,4146.41025641026,4176.79487179487,4170.64102564103,4187.17948717949,4167.30769230769,4181.41025641026,4176.79487179487,4150.38461538462,4160.64102564103,4166.79487179487,0,0,0.960793645144685,0,0.913212299346924,0,0,0,0
88,0,1687,4155.64102564103,4203.20512820513,4166.92307692308,4161.92307692308,4146.53846153846,4178.97435897436,4169.10256410256,4188.97435897436,4166.53846153846,4175.12820512821,4182.17948717949,4152.5641025641,4164.8717948718,4167.5641025641,0,0,0.968573865790863,0,0.913212299346924,0,0,0,0
89,0,1204,4158.97435897436,4202.94871794872,4164.74358974359,4168.84615384615,4152.17948717949,4184.10256410256,4168.20512820513,4188.20512820513,4168.33333333333,4178.07692307692,4188.97435897436,4156.02564102564,4168.07692307692,4172.4358974359,0,0,0.976354086437041,0,0.913212299346924,0,0,0,0
90,0,3370,4155,4202.05128205128,4166.53846153846,4162.05128205128,4158.20512820513,4183.84615384615,4165,4185.25641025641,4168.97435897436,4176.66666666667,4182.5641025641,4152.82051282051,4161.41025641026,4168.84615384615,0,0,0.984234307083219,0,0.913212299346924,0,0,0,0
91,0,1324,4149.74358974359,4195.38461538462,4171.53846153846,4159.61538461538,4157.17948717949,4183.46153846154,4166.92307692308,4185,4166.79487179487,4168.07692307692,4174.48717948718,4150.25641025641,4151.02564102564,4165.25641025641,0,0,0.992214527729398,0,0.913212299346924,0,0,0,0
92,0,1687,4152.69230769231,4189.8717948718,4167.94871794872,4167.05128205128,4154.74358974359,4183.46153846154,4170.12820512821,4184.61538461538,4164.8717948718,4163.58974358974,4178.33333333333,4146.53846153846,4151.53846153846,4167.17948717949,0,0,1.00019474837558,0,0.913212299346924,0,0,0,0
93,0,1204,4152.82051282051,4199.48717948718,4162.4358974359,4168.58974358974,4153.20512820513,4181.28205128205,4167.82051282051,4186.66666666667,4168.58974358974,4170.51282051282,4186.15384615385,4142.17948717949,4159.48717948718,4165.25641025641,0,0,1.00807496902175,0,0.913212299346924,0,0,0,0
94,0,3370,4155,4210.38461538462,4170.51282051282,4166.66666666667,4154.8717948718,4183.07692307692,4170.51282051282,4196.53846153846,4174.8717948718,4179.8717948718,4185.76923076923,4148.58974358974,4158.33333333333,4166.41025641026,0,0,1.01585518966793,0,0.913212299346924,0,0,0,0
95,0,1324,4154.74358974359,4201.02564102564,4167.17948717949,4163.58974358974,4159.23076923077,4186.02564102564,4178.97435897436,4204.74358974359,4176.53846153846,4181.79487179487,4182.5641025641,4148.71794871795,4157.17948717949,4165.64102564103,0,0,1.02373541031411,0,0.913212299346924,0,0,0,0
96,0,1687,4151.66666666667,4187.94871794872,4162.94871794872,4156.92307692308,4158.20512820513,4184.48717948718,4177.69230769231,4199.35897435897,4173.84615384615,4175.76923076923,4184.74358974359,4149.48717948718,4164.61538461538,4164.61538461538,0,0,1.03171563096029,0,0.913212299346924,0,0,0,0
97,0,1204,4152.5641025641,4192.30769230769,4166.02564102564,4156.66666666667,4156.92307692308,4184.10256410256,4169.74358974359,4187.5641025641,4167.5641025641,4173.58974358974,4186.79487179487,4155,4167.5641025641,4166.53846153846,0,0,1.03949585160647,0,1.04727602005005,0,0,0,0
98,0,3370,4156.66666666667,4200.51282051282,4163.58974358974,4159.48717948718,4157.30769230769,4185.64102564103,4166.41025641026,4179.74358974359,4160.76923076923,4170.76923076923,4183.20512820513,4148.97435897436,4159.35897435897,4163.84615384615,0,0,1.04727607225264,0,1.04727602005005,0,0,0,0
99,0,1324,4160.89743589744,4201.92307692308,4168.20512820513,4161.41025641026,4156.41025641026,4181.53846153846,4167.82051282051,4180.89743589744,4158.58974358974,4166.53846153846,4180.51282051282,4148.84615384615,4154.8717948718,4166.28205128205,0,0,1.05515629289882,0,1.04727602005005,0,0,0,0
100,0,1687,4160,4203.46153846154,4168.07692307692,4169.74358974359,4157.17948717949,4174.10256410256,4165.51282051282,4180.38461538462,4161.02564102564,4171.41025641026,4183.20512820513,4153.46153846154,4165.89743589744,4169.74358974359,0,0,1.063136513545,0,1.04727602005005,0,0,0,0
101,0,1204,4159.8717948718,4205.89743589744,4163.84615384615,4173.84615384615,4157.4358974359,4171.15384615385,4157.17948717949,4171.02564102564,4158.71794871795,4172.30769230769,4185.12820512821,4154.10256410256,4169.23076923077,4168.20512820513,0,0,1.07111673419118,0,1.04727602005005,0,0,0,0
102,0,3370,4156.66666666667,4200.12820512821,4166.41025641026,4163.46153846154,4153.46153846154,4168.20512820513,4156.92307692308,4169.23076923077,4154.48717948718,4161.02564102564,4181.92307692308,4149.8717948718,4156.79487179487,4165.51282051282,0,0,1.07909695483736,0,1.04727602005005,0,0,0,0
103,0,1324,4155.51282051282,4197.69230769231,4165.51282051282,4160.12820512821,4151.28205128205,4166.79487179487,4165.38461538462,4180.64102564103,4162.17948717949,4161.02564102564,4179.74358974359,4143.71794871795,4152.30769230769,4162.17948717949,0,0,1.08697717548353,0,1.04727602005005,0,0,0,0
104,0,1687,4164.35897435897,4205.25641025641,4167.69230769231,4167.30769230769,4155.76923076923,4174.74358974359,4172.82051282051,4188.84615384615,4172.4358974359,4171.53846153846,4184.35897435897,4151.15384615385,4155.64102564103,4165.76923076923,0,0,1.09485739612971,0,1.04727602005005,0,0,0,0
105,0,1204,4161.02564102564,4203.46153846154,4164.74358974359,4162.30769230769,4157.30769230769,4183.07692307692,4175,4187.30769230769,4170.51282051282,4171.28205128205,4183.46153846154,4151.41025641026,4156.79487179487,4165.12820512821,0,0,1.10263761677589,0,1.04727602005005,0,0,0,0
106,0,3370,4149.10256410256,4196.28205128205,4160.51282051282,4151.53846153846,4153.84615384615,4183.97435897436,4174.10256410256,4188.33333333333,4170.25641025641,4173.07692307692,4178.58974358974,4144.61538461538,4161.53846153846,4161.15384615385,0,0,1.11041783742207,0,1.04727602005005,0,0,0,0
107,0,1324,4151.15384615385,4199.35897435897,4165.51282051282,4159.48717948718,4154.61538461538,4184.48717948718,4176.02564102564,4199.23076923077,4184.61538461538,4186.66666666667,4182.4358974359,4149.61538461538,4171.66666666667,4165.89743589744,0,0,1.11829805806825,0,1.04727602005005,0,0,0,0
108,0,1687,4160.64102564103,4202.69230769231,4165.51282051282,4173.33333333333,4158.07692307692,4187.30769230769,4179.10256410256,4203.20512820513,4188.07692307692,4181.92307692308,4188.20512820513,4152.69230769231,4173.07692307692,4168.97435897436,0,0,1.12627827871443,0,1.04727602005005,0,0,0,0
109,0,1204,4164.74358974359,4198.20512820513,4166.66666666667,4165.76923076923,4154.61538461538,4182.94871794872,4176.15384615385,4193.20512820513,4176.02564102564,4172.30769230769,4186.28205128205,4153.84615384615,4165.38461538462,4170.25641025641,0,0,1.1342584993606,0,1.04727602005005,0,0,0,0
110,0,3370,4161.41025641026,4196.02564102564,4165.38461538462,4154.35897435897,4147.4358974359,4173.46153846154,4168.07692307692,4186.41025641026,4173.33333333333,4180.38461538462,4182.5641025641,4153.20512820513,4161.53846153846,4168.20512820513,0,0,1.14223872000678,0,1.04727602005005,0,0,0,0
111,0,1324,4159.10256410256,4196.28205128205,4164.48717948718,4154.8717948718,4143.07692307692,4169.48717948718,4165.12820512821,4184.35897435897,4174.23076923077,4174.23076923077,4185.89743589744,4151.79487179487,4159.74358974359,4167.17948717949,0,0,1.15011894065296,0,1.04727602005005,0,0,0,0
112,0,1687,4160.89743589744,4192.30769230769,4167.05128205128,4154.23076923077,4138.71794871795,4168.46153846154,4166.02564102564,4176.15384615385,4168.33333333333,4150.51282051282,4188.20512820513,4150.76923076923,4156.92307692308,4170.76923076923,0,0,1.15799916129914,0,1.04727602005005,0,0,0,0
113,0,1204,4156.02564102564,4185.76923076923,4160.38461538462,4151.53846153846,4136.41025641026,4166.53846153846,4165.76923076923,4170.64102564103,4167.30769230769,4151.53846153846,4180.51282051282,4144.74358974359,4154.48717948718,4166.92307692308,0,0,1.16577938194532,0,1.17355954647064,0,0,0,0
114,0,3370,4153.58974358974,4188.07692307692,4162.94871794872,4154.48717948718,4143.33333333333,4168.07692307692,4167.30769230769,4178.07692307692,4170.51282051282,4165.51282051282,4176.02564102564,4147.17948717949,4152.4358974359,4166.41025641026,0,0,1.17355960259149,0,1.17355954647064,0,0,0,0
115,0,1324,4159.10256410256,4197.69230769231,4166.41025641026,4158.20512820513,4151.53846153846,4170.25641025641,4165.76923076923,4185.25641025641,4172.69230769231,4159.8717948718,4182.69230769231,4150.12820512821,4151.28205128205,4166.28205128205,0,0,1.18143982323767,0,1.17355954647064,0,0,0,0
116,0,1687,4167.82051282051,4204.23076923077,4163.71794871795,4162.5641025641,4154.23076923077,4167.5641025641,4164.74358974359,4184.8717948718,4180.38461538462,4160.12820512821,4188.33333333333,4146.79487179487,4158.71794871795,4165.51282051282,0,0,1.18942004388385,0,1.17355954647064,0,0,0,0
117,0,1204,4170.51282051282,4205.25641025641,4168.71794871795,4165.38461538462,4154.74358974359,4171.92307692308,4169.48717948718,4184.10256410256,4181.92307692308,4175.12820512821,4185.64102564103,4150,4171.53846153846,4169.74358974359,0,0,1.19740026453003,0,1.17355954647064,0,0,0,0
118,0,3370,4161.41025641026,4204.10256410256,4166.66666666667,4161.92307692308,4159.8717948718,4182.5641025641,4170.25641025641,4185.12820512821,4176.79487179487,4179.23076923077,4183.97435897436,4149.8717948718,4171.66666666667,4164.23076923077,0,0,1.20538048517621,0,1.17355954647064,0,0,0,0
119,0,1324,4159.23076923077,4202.4358974359,4166.79487179487,4162.05128205128,4166.02564102564,4186.66666666667,4168.58974358974,4187.69230769231,4181.28205128205,4171.66666666667,4188.07692307692,4150.38461538462,4163.20512820513,4163.71794871795,0,0,1.21326070582238,0,1.17355954647064,0,0,0,0
120,0,1687,4168.07692307692,4201.53846153846,4168.58974358974,4169.10256410256,4165.51282051282,4187.4358974359,4177.30769230769,4188.58974358974,4182.94871794872,4168.97435897436,4190.12820512821,4151.79487179487,4163.97435897436,4169.23076923077,0,0,1.22114092646856,0,1.17355954647064,0,0,0,0
121,0,1204,4171.79487179487,4206.15384615385,4164.8717948718,4171.92307692308,4165.89743589744,4190.12820512821,4184.35897435897,4189.35897435897,4174.8717948718,4177.30769230769,4189.10256410256,4149.61538461538,4172.17948717949,4168.20512820513,0,0,1.22892114711474,0,1.17355954647064,0,0,0,0
122,0,3370,4166.28205128205,4204.23076923077,4168.07692307692,4168.84615384615,4169.10256410256,4188.71794871795,4174.8717948718,4189.23076923077,4171.28205128205,4182.69230769231,4188.97435897436,4155,4173.20512820513,4167.17948717949,0,0,1.23670136776092,0,1.17355954647064,0,0,0,0
123,0,1324,4159.10256410256,4197.82051282051,4165,4166.28205128205,4167.05128205128,4181.79487179487,4166.15384615385,4185.76923076923,4172.94871794872,4182.82051282051,4185.51282051282,4153.71794871795,4165.76923076923,4163.58974358974,0,0,1.2445815884071,0,1.17355954647064,0,0,0,0
124,0,1687,4166.15384615385,4205.12820512821,4163.97435897436,4166.92307692308,4163.58974358974,4181.02564102564,4172.5641025641,4186.66666666667,4177.94871794872,4183.71794871795,4186.92307692308,4151.92307692308,4162.69230769231,4166.53846153846,0,0,1.25256180905327,0,1.17355954647064,0,0,0,0
125,0,1204,4176.15384615385,4220.12820512821,4168.20512820513,4172.82051282051,4163.33333333333,4181.41025641026,4173.84615384615,4188.07692307692,4180,4189.10256410256,4195.25641025641,4153.84615384615,4171.15384615385,4173.97435897436,0,0,1.26054202969945,0,1.17355954647064,0,0,0,0
126,0,3370,4178.20512820513,4222.5641025641,4169.23076923077,4178.84615384615,4163.07692307692,4172.17948717949,4162.94871794872,4181.92307692308,4174.35897435897,4191.02564102564,4197.69230769231,4154.23076923077,4181.53846153846,4174.74358974359,0,0,1.26842225034563,0,1.17355954647064,0,0,0,0
127,0,54,4179.48717948718,4218.20512820513,4173.33333333333,4178.20512820513,4162.69230769231,4165.64102564103,4159.48717948718,4177.69230769231,4174.48717948718,4184.48717948718,4196.66666666667,4162.30769230769,4184.23076923077,4176.92307692308,0,0,1.27620247099181,0,1.17355954647064,0,0,0,0
0,0,981,4179.61538461538,4221.79487179487,4169.35897435897,4175.64102564103,4169.74358974359,4177.17948717949,4166.92307692308,4185,4184.10256410256,4190,4197.94871794872,4162.4358974359,4186.66666666667,4178.58974358974,0,0,1.28408269163799,0,1.17355954647064,0,0,0,0
1,0,3294,4180.89743589744,4224.35897435897,4167.94871794872,4173.97435897436,4173.84615384615,4186.15384615385,4173.46153846154,4193.33333333333,4189.74358974359,4200.51282051282,4194.74358974359,4158.20512820513,4185,4176.41025641026,0,0,1.29206291228417,0,1.30782330036163,0,0,0,0
2,0,2335,4177.4358974359,4218.46153846154,4169.48717948718,4169.61538461538,4164.61538461538,4176.15384615385,4168.97435897436,4190.76923076923,4184.35897435897,4189.8717948718,4186.79487179487,4157.4358974359,4172.30769230769,4172.69230769231,0,0,1.30004313293034,0,1.30782330036163,0,0,0,0
3,0,3083,4167.82051282051,4208.71794871795,4165.25641025641,4165.12820512821,4158.71794871795,4170.64102564103,4164.8717948718,4185.89743589744,4175.64102564103,4174.10256410256,4185,4155.25641025641,4164.10256410256,4170.12820512821,0,0,1.30782335357652,0,1.30782330036163,0,0,0,0
4,0,3556,4170,4205.76923076923,4169.74358974359,4167.4358974359,4157.94871794872,4174.61538461538,4170,4186.15384615385,4170,4176.53846153846,4185,4157.17948717949,4168.84615384615,4173.20512820513,0,0,1.3157035742227,0,1.30782330036163,0,0,0,0
5,0,3174,4177.69230769231,4212.82051282051,4169.74358974359,4170.51282051282,4157.17948717949,4173.20512820513,4169.74358974359,4182.4358974359,4170,4178.07692307692,4182.30769230769,4155,4170.89743589744,4169.74358974359,0,0,1.32358379486888,0,1.30782330036163,0,0,0,0
6,0,3084,4175.76923076923,4218.07692307692,4167.82051282051,4167.94871794872,4159.8717948718,4171.28205128205,4165.25641025641,4170.89743589744,4168.33333333333,4167.82051282051,4184.10256410256,4153.97435897436,4159.48717948718,4165.25641025641,0,0,1.33136401551506,0,1.30782330036163,0,0,0,0
7,0,2904,4171.15384615385,4215.25641025641,4171.66666666667,4166.15384615385,4161.15384615385,4174.74358974359,4167.5641025641,4168.58974358974,4167.17948717949,4165.12820512821,4184.35897435897,4155.12820512821,4150.76923076923,4169.74358974359,0,0,1.33914423616123,0,1.30782330036163,0,0,0,0
8,0,2587,4173.97435897436,4211.66666666667,4168.20512820513,4168.46153846154,4158.71794871795,4174.35897435897,4168.71794871795,4179.10256410256,4171.79487179487,4173.46153846154,4178.58974358974,4151.66666666667,4157.4358974359,4170.25641025641,0,0,1.34702445680741,0,1.30782330036163,0,0,0,0
9,0,3527,4179.74358974359,4213.84615384615,4169.48717948718,4169.48717948718,4155.76923076923,4169.61538461538,4159.35897435897,4180,4170.64102564103,4175.25641025641,4179.8717948718,4153.58974358974,4163.46153846154,4172.05128205128,0,0,1.35500467745359,0,1.30782330036163,0,0,0,0
10,0,3370,4177.82051282051,4217.05128205128,4169.35897435897,4171.02564102564,4159.74358974359,4168.97435897436,4155.89743589744,4172.17948717949,4169.48717948718,4173.97435897436,4182.94871794872,4151.79487179487,4159.35897435897,4172.5641025641,0,0,1.36298489809977,0,1.30782330036163,0,0,0,0
11,0,1324,4176.41025641026,4217.69230769231,4166.15384615385,4173.07692307692,4162.5641025641,4170.76923076923,4160.12820512821,4172.17948717949,4171.92307692308,4173.71794871795,4176.02564102564,4149.8717948718,4154.61538461538,4170.12820512821,0,0,1.37096511874595,0,1.30782330036163,0,0,0,0
12,0,1688,4178.58974358974,4213.84615384615,4167.4358974359,4172.4358974359,4159.23076923077,4170.76923076923,4158.71794871795,4172.69230769231,4165.51282051282,4164.61538461538,4173.71794871795,4153.71794871795,4150.64102564103,4168.84615384615,0,0,1.37884533939212,0,1.30782330036163,0,0,0,0
13,0,1199,4175.51282051282,4215.12820512821,4166.02564102564,4172.17948717949,4161.15384615385,4171.53846153846,4160.89743589744,4169.61538461538,4160.51282051282,4160.89743589744,4177.05128205128,4149.10256410256,4145.25641025641,4162.94871794872,0,0,1.3867255600383,0,1.30782330036163,0,0,0,0
14,0,3370,4175.64102564103,4219.74358974359,4170.25641025641,4171.15384615385,4164.23076923077,4173.20512820513,4167.69230769231,4171.79487179487,4163.58974358974,4164.23076923077,4175,4150.25641025641,4144.10256410256,4163.97435897436,0,0,1.39450578068448,0,1.30782330036163,0,0,0,0
15,0,1324,4177.4358974359,4207.5641025641,4168.71794871795,4167.4358974359,4160.38461538462,4170.25641025641,4162.69230769231,4171.15384615385,4162.69230769231,4159.8717948718,4171.15384615385,4155.64102564103,4148.71794871795,4168.58974358974,0,0,1.40228600133066,0,1.30782330036163,0,0,0,0
16,0,0,4175,4195,4165.12820512821,4166.02564102564,4151.66666666667,4165.76923076923,4151.41025641026,4165.38461538462,4157.05128205128,4157.69230769231,4171.92307692308,4155.38461538462,4155.38461538462,4170.25641025641,0,0,1.41016622197684,0,1.30782330036163,0,0,0,0
17,0,0,4174.61538461538,4207.94871794872,4170.76923076923,4168.07692307692,4151.66666666667,4168.07692307692,4152.94871794872,4169.23076923077,4158.97435897436,4161.66666666667,4177.30769230769,4156.15384615385,4155,4170.64102564103,0,0,1.41814644262302,0,1.43410682678223,0,0,0,0
18,0,0,4175,4216.15384615385,4168.84615384615,4167.30769230769,4156.53846153846,4171.15384615385,4157.94871794872,4174.74358974359,4162.4358974359,4163.46153846154,4176.92307692308,4155.12820512821,4146.53846153846,4169.10256410256,0,0,1.42612666326919,0,1.43410682678223,0,0,0,0
19,0,0,4175,4205.89743589744,4168.07692307692,4166.02564102564,4153.58974358974,4167.82051282051,4156.02564102564,4171.66666666667,4158.84615384615,4159.48717948718,4173.46153846154,4156.53846153846,4138.07692307692,4173.07692307692,0,0,1.43410688391537,0,1.43410682678223,0,0,0,0
20,0,0,4173.46153846154,4205.89743589744,4167.82051282051,4168.33333333333,4153.58974358974,4166.92307692308,4156.92307692308,4171.15384615385,4157.05128205128,4160.76923076923,4173.58974358974,4153.58974358974,4139.10256410256,4171.02564102564,0,0,1.44198710456155,0,1.43410682678223,0,0,0,0
21,0,0,4173.84615384615,4209.23076923077,4168.58974358974,4170.25641025641,4155.76923076923,4169.74358974359,4157.17948717949,4172.30769230769,4155.89743589744,4163.97435897436,4173.33333333333,4149.35897435897,4145.89743589744,4163.97435897436,0,0,1.44986732520773,0,1.43410682678223,0,0,0,0
22,0,0,4177.05128205128,4200.89743589744,4173.71794871795,4169.10256410256,4154.10256410256,4170.25641025641,4153.97435897436,4171.02564102564,4153.84615384615,4164.74358974359,4173.58974358974,4155.76923076923,4145.64102564103,4166.79487179487,0,0,1.45764754585391,0,1.43410682678223,0,0,0,0
23,0,0,4177.4358974359,4206.15384615385,4169.61538461538,4170.12820512821,4155.89743589744,4169.74358974359,4155.38461538462,4172.4358974359,4155.25641025641,4169.35897435897,4178.97435897436,4156.41025641026,4148.07692307692,4169.48717948718,0,0,1.46542776650008,0,1.43410682678223,0,0,0,0
24,0,0,4179.48717948718,4219.74358974359,4172.05128205128,4172.94871794872,4160.25641025641,4170.38461538462,4159.48717948718,4172.05128205128,4155.38461538462,4169.23076923077,4179.74358974359,4154.48717948718,4150.64102564103,4168.84615384615,0,0,1.47330798714626,0,1.43410682678223,0,0,0,0
25,0,0,4175.89743589744,4212.94871794872,4171.92307692308,4167.05128205128,4157.05128205128,4170.38461538462,4160.38461538462,4169.23076923077,4153.07692307692,4160.25641025641,4168.84615384615,4153.71794871795,4142.5641025641,4166.15384615385,0,0,1.48118820779244,0,1.43410682678223,0,0,0,0
26,0,0,4165.51282051282,4198.33333333333,4161.79487179487,4154.74358974359,4150.51282051282,4164.35897435897,4158.71794871795,4171.15384615385,4157.5641025641,4160.12820512821,4167.17948717949,4151.66666666667,4140.76923076923,4162.82051282051,0,0,1.48896842843862,0,1.43410682678223,0,0,0,0
27,0,0,4166.28205128205,4197.82051282051,4167.5641025641,4152.4358974359,4147.30769230769,4157.05128205128,4156.53846153846,4172.94871794872,4165.89743589744,4172.30769230769,4177.82051282051,4157.30769230769,4152.05128205128,4168.07692307692,0,0,1.4967486490848,0,1.43410682678223,0,0,0,0
28,0,0,4175,4208.33333333333,4170,4162.69230769231,4152.17948717949,4160.38461538462,4152.69230769231,4168.71794871795,4169.35897435897,4180.64102564103,4183.58974358974,4157.69230769231,4158.58974358974,4172.05128205128,0,0,1.50462886973097,0,1.43410682678223,0,0,0,0
29,0,0,4178.71794871795,4215.64102564103,4167.69230769231,4171.79487179487,4163.58974358974,4168.58974358974,4153.97435897436,4167.5641025641,4168.97435897436,4180.89743589744,4185,4157.05128205128,4154.74358974359,4170.76923076923,0,0,1.51260909037715,0,1.43410682678223,0,0,0,0
30,0,0,4177.82051282051,4217.05128205128,4171.15384615385,4173.84615384615,4168.33333333333,4169.8717948718,4162.05128205128,4175.51282051282,4167.94871794872,4182.30769230769,4183.71794871795,4157.82051282051,4156.15384615385,4168.71794871795,0,0,1.52058931102333,0,1.43410682678223,0,0,0,0
31,0,0,4177.05128205128,4216.79487179487,4171.66666666667,4171.15384615385,4165.25641025641,4168.84615384615,4168.20512820513,4180.89743589744,4168.46153846154,4181.66666666667,4183.46153846154,4155.12820512821,4160.25641025641,4168.46153846154,0,0,1.52836953166951,0,1.43410682678223,0,0,0,0
32,0,0,4176.15384615385,4210.12820512821,4171.79487179487,4166.02564102564,4160,4171.92307692308,4168.84615384615,4163.46153846154,4168.07692307692,4177.82051282051,4185.51282051282,4157.82051282051,4151.66666666667,4173.07692307692,0,0,1.53624975231569,0,1.43410682678223,0,0,0,0
33,0,0,4175,4200.76923076923,4166.28205128205,4167.30769230769,4162.4358974359,4172.94871794872,4167.4358974359,4163.07692307692,4166.92307692308,4178.84615384615,4180.89743589744,4153.33333333333,4142.69230769231,4171.53846153846,0,0,1.54412997296186,0,1.55969035625458,0,0,0,0
34,0,0,4177.69230769231,4207.05128205128,4167.30769230769,4170.64102564103,4168.58974358974,4170.89743589744,4166.02564102564,4175,4169.23076923077,4180.89743589744,4176.02564102564,4150.25641025641,4150.51282051282,4171.15384615385,0,0,1.55191019360804,0,1.55969035625458,0,0,0,0
35,0,0,4179.74358974359,4215.25641025641,4170.38461538462,4168.84615384615,4163.33333333333,4170,4163.84615384615,4063.58974358974,4173.46153846154,4182.94871794872,4179.35897435897,4154.10256410256,4154.74358974359,4173.58974358974,0,0,1.55969041425422,0,1.55969035625458,0,0,0,0
36,0,0,4176.53846153846,4205.76923076923,4164.61538461538,4167.4358974359,4157.05128205128,4169.48717948718,4164.23076923077,3874.10256410256,4173.46153846154,4186.41025641026,4182.69230769231,4154.74358974359,4142.94871794872,4168.97435897436,0,0,1.5675706349004,0,1.55969035625458,0,0,0,0
37,0,0,4178.07692307692,4200.76923076923,4167.5641025641,4168.20512820513,4159.8717948718,4171.28205128205,4170,3810.89743589744,4170.76923076923,4187.82051282051,4181.41025641026,4158.46153846154,4143.46153846154,4171.66666666667,0,0,1.57555085554658,0,1.55969035625458,0,0,0,0
38,0,0,4183.07692307692,4203.33333333333,4167.82051282051,4169.23076923077,4165.38461538462,4173.84615384615,4167.82051282051,3847.82051282051,4169.74358974359,4189.48717948718,4181.28205128205,4156.92307692308,4159.8717948718,4174.61538461538,0,0,1.58353107619276,0,1.55969035625458,0,0,0,0
39,0,0,4186.66666666667,4202.69230769231,4168.97435897436,4170.51282051282,4164.48717948718,4171.79487179487,4158.07692307692,3847.5641025641,4168.58974358974,4188.84615384615,4185.76923076923,4157.05128205128,4160.51282051282,4174.61538461538,0,0,1.59151129683893,0,1.55969035625458,0,0,0,0
40,0,0,4188.33333333333,4208.97435897436,4174.74358974359,4171.41025641026,4163.58974358974,4168.07692307692,4158.07692307692,3845.64102564103,4167.05128205128,4186.79487179487,4186.66666666667,4161.92307692308,4150.89743589744,4177.82051282051,0,0,1.59939151748511,0,1.55969035625458,0,0,0,0
41,0,0,4182.4358974359,4217.94871794872,4171.28205128205,4171.15384615385,4164.74358974359,4168.97435897436,4166.53846153846,3878.46153846154,4166.53846153846,4184.35897435897,4179.10256410256,4158.97435897436,4151.02564102564,4175.64102564103,0,0,1.60727173813129,0,1.55969035625458,0,0,0,0
42,0,0,4177.82051282051,4215.38461538462,4170.76923076923,4171.79487179487,4166.92307692308,4170.76923076923,4169.74358974359,3893.71794871795,4168.20512820513,4182.30769230769,4178.46153846154,4158.46153846154,4152.94871794872,4177.5641025641,0,0,1.61505195877747,0,1.55969035625458,0,0,0,0
43,0,0,4176.02564102564,4214.61538461538,4167.94871794872,4173.20512820513,4172.17948717949,4170.64102564103,4168.20512820513,3903.33333333333,4172.05128205128,4185.25641025641,4181.66666666667,4158.33333333333,4154.61538461538,4180.25641025641,0,0,1.62283217942365,0,1.55969035625458,0,0,0,0
44,0,0,4171.53846153846,4215.89743589744,4165.12820512821,4172.17948717949,4170.89743589744,4170,4165.51282051282,3920.25641025641,4172.05128205128,4186.79487179487,4177.17948717949,4155.76923076923,4153.71794871795,4176.28205128205,0,0,1.63071240006982,0,1.55969035625458,0,0,0,0
45,0,0,4170.25641025641,4207.17948717949,4167.82051282051,4169.10256410256,4166.41025641026,4168.58974358974,4158.84615384615,3926.92307692308,4166.79487179487,4178.97435897436,4173.84615384615,4155.12820512821,4149.23076923077,4173.97435897436,0,0,1.638692620716,0,1.55969035625458,0,0,0,0
46,0,0,4173.84615384615,4205.25641025641,4166.02564102564,4169.48717948718,4167.82051282051,4165.89743589744,4153.33333333333,3930.12820512821,4166.02564102564,4177.94871794872,4177.69230769231,4153.07692307692,4152.5641025641,4175.12820512821,0,0,1.64667284136218,0,1.55969035625458,0,0,0,0
47,0,0,4178.20512820513,4215.64102564103,4169.61538461538,4171.92307692308,4170.25641025641,4168.07692307692,4156.02564102564,3944.10256410256,4171.15384615385,4187.05128205128,4183.46153846154,4158.71794871795,4160.64102564103,4181.92307692308,0,0,1.65465306200836,0,1.55969035625458,0,0,0,0
48,0,0,4175,4212.69230769231,4167.17948717949,4171.02564102564,4165.64102564103,4172.30769230769,4159.23076923077,3959.35897435898,4171.41025641026,4183.58974358974,4180,4158.33333333333,4154.23076923077,4179.35897435897,0,0,1.66253328265454,0,1.55969035625458,0,0,0,0
49,0,0,4173.20512820513,4203.97435897436,4165,4169.74358974359,4160.12820512821,4165.89743589744,4155.38461538462,3958.46153846154,4167.17948717949,4173.84615384615,4173.97435897436,4153.46153846154,4145.38461538462,4171.02564102564,0,0,1.67041350330071,0,1.55969035625458,0,0,0,0
50,0,0,4176.53846153846,4212.30769230769,4171.53846153846,4171.92307692308,4166.41025641026,4160.51282051282,4153.97435897436,3961.15384615385,4168.58974358974,4179.8717948718,4177.94871794872,4158.71794871795,4156.92307692308,4176.28205128205,0,0,1.67839372394689,0,1.55969035625458,0,0,0,0
51,0,0,4174.35897435897,4222.17948717949,4168.46153846154,4172.69230769231,4172.69230769231,4166.02564102564,4155.51282051282,3978.84615384615,4174.35897435897,4190.12820512821,4181.53846153846,4157.30769230769,4164.74358974359,4180,0,0,1.68637394459307,0,1.55969035625458,0,0,0,0
52,0,0,4173.46153846154,4216.79487179487,4170.51282051282,4171.15384615385,4168.46153846154,4170.12820512821,4155.76923076923,3994.61538461539,4173.07692307692,4188.07692307692,4177.30769230769,4156.92307692308,4155.38461538462,4178.46153846154,0,0,1.69425416523925,0,1.55969035625458,0,0,0,0
53,0,0,4173.07692307692,4211.92307692308,4173.20512820513,4170.25641025641,4165.64102564103,4168.07692307692,4159.48717948718,4004.8717948718,4167.4358974359,4183.84615384615,4175.12820512821,4159.74358974359,4160.12820512821,4177.30769230769,0,0,1.70213438588543,0,1.55969035625458,0,0,0,0
54,0,0,4170.51282051282,4213.46153846154,4169.10256410256,4169.35897435897,4169.8717948718,4168.84615384615,4163.46153846154,4013.33333333333,4167.4358974359,4183.71794871795,4175.64102564103,4158.20512820513,4170.38461538462,4176.92307692308,0,0,1.7100146065316,0,1.55969035625458,0,0,0,0
55,0,0,4171.79487179487,4206.41025641026,4171.79487179487,4167.69230769231,4168.97435897436,4171.66666666667,4164.8717948718,4019.23076923077,4169.10256410256,4182.94871794872,4171.79487179487,4157.5641025641,4157.30769230769,4173.97435897436,0,0,1.71799482717778,0,1.55969035625458,0,0,0,0
56,0,0,4170.12820512821,4200.12820512821,4170,4167.94871794872,4167.5641025641,4170,4165.51282051282,4029.35897435898,4171.28205128205,4186.66666666667,4173.07692307692,4153.33333333333,4148.20512820513,4168.07692307692,0,0,1.72587504782396,0,1.55969035625458,0,0,0,0
57,0,0,4165.89743589744,4202.69230769231,4169.23076923077,4169.10256410256,4166.92307692308,4168.84615384615,4166.92307692308,4037.4358974359,4173.33333333333,4183.46153846154,4175.64102564103,4154.74358974359,4156.28205128205,4170.76923076923,0,0,1.73375526847014,0,1.55969035625458,0,0,0,0
58,0,0,4160.89743589744,4201.02564102564,4168.97435897436,4163.58974358974,4159.74358974359,4169.10256410256,4166.41025641026,4033.84615384615,4170,4170.38461538462,4168.58974358974,4156.15384615385,4150.25641025641,4168.46153846154,0,0,1.74153548911632,0,1.55969035625458,0,0,0,0
59,0,0,4158.84615384615,4201.02564102564,4164.8717948718,4160.51282051282,4161.53846153846,4170.25641025641,4162.82051282051,4035.25641025641,4167.5641025641,4172.30769230769,4166.79487179487,4152.30769230769,4138.46153846154,4160.76923076923,0,0,1.7493157097625,0,1.55969035625458,0,0,0,0
60,0,0,4163.84615384615,4198.46153846154,4168.07692307692,4167.4358974359,4167.17948717949,4171.28205128205,4160.51282051282,4047.94871794872,4171.41025641026,4180.76923076923,4175.12820512821,4155.38461538462,4142.05128205128,4166.66666666667,0,0,1.75719593040867,0,1.55969035625458,0,0,0,0
61,0,0,4165.89743589744,4190.64102564103,4166.79487179487,4169.35897435897,4161.66666666667,4167.17948717949,4162.69230769231,4053.58974358974,4173.46153846154,4174.23076923077,4178.20512820513,4154.74358974359,4154.23076923077,4171.28205128205,0,0,1.76517615105485,0,1.55969035625458,0,0,0,0
62,0,0,4170.64102564103,4196.41025641026,4168.07692307692,4165.38461538462,4160.64102564103,4168.46153846154,4169.8717948718,4056.02564102564,4170.76923076923,4174.35897435897,4179.8717948718,4156.66666666667,4164.74358974359,4174.23076923077,0,0,1.77315637170103,0,1.55969035625458,0,0,0,0
63,0,0,4174.61538461538,4208.97435897436,4170.76923076923,4166.79487179487,4170.89743589744,4175,4169.74358974359,4060.25641025641,4170.76923076923,4189.10256410256,4183.07692307692,4160.89743589744,4165.38461538462,4177.82051282051,0,0,1.78103659234721,0,1.55969035625458,0,0,0,0
64,0,979,4169.8717948718,4206.15384615385,4168.46153846154,4171.79487179487,4172.82051282051,4175.51282051282,4166.66666666667,4058.84615384615,4171.79487179487,4191.28205128205,4184.23076923077,4159.35897435897,4162.69230769231,4174.74358974359,0,0,1.78891681299339,0,1.55969035625458,0,0,0,0
65,0,3294,4170.76923076923,4201.02564102564,4172.05128205128,4170.25641025641,4168.58974358974,4174.10256410256,4167.94871794872,4062.69230769231,4170.12820512821,4184.48717948718,4186.79487179487,4161.41025641026,4164.48717948718,4173.84615384615,0,0,1.79679703363956,0,1.8123574256897,0,0,0,0
66,0,2332,4169.10256410256,4202.30769230769,4165.12820512821,4159.74358974359,4170,4173.07692307692,4166.79487179487,4071.53846153846,4169.23076923077,4185,4181.15384615385,4156.15384615385,4160.25641025641,4168.46153846154,0,0,1.80457725428574,0,1.8123574256897,0,0,0,0
67,0,3083,4167.4358974359,4200.64102564103,4161.79487179487,4156.02564102564,4167.4358974359,4169.48717948718,4167.4358974359,4077.05128205128,4169.35897435897,4183.84615384615,4173.84615384615,4153.58974358974,4151.79487179487,4165.64102564103,0,0,1.81235747493192,0,1.8123574256897,0,0,0,0
68,0,3556,4173.07692307692,4198.84615384615,4169.35897435897,4165.76923076923,4167.69230769231,4173.20512820513,4169.35897435897,4081.41025641026,4169.48717948718,4184.10256410256,4178.71794871795,4158.07692307692,4155.89743589744,4171.28205128205,0,0,1.8202376955781,0,1.8123574256897,0,0,0,0
69,0,3174,4172.69230769231,4199.74358974359,4167.4358974359,4167.17948717949,4171.53846153846,4182.30769230769,4169.61538461538,4081.79487179487,4168.20512820513,4187.05128205128,4182.69230769231,4154.10256410256,4160.51282051282,4171.79487179487,0,0,1.82821791622428,0,1.8123574256897,0,0,0,0
70,0,3086,4172.30769230769,4208.46153846154,4168.07692307692,4160.25641025641,4171.41025641026,4183.58974358974,4170.89743589744,4083.84615384615,4168.71794871795,4185.51282051282,4180.64102564103,4154.23076923077,4154.61538461538,4171.41025641026,0,0,1.83619813687045,0,1.8123574256897,0,0,0,0
71,0,2919,4173.20512820513,4210.89743589744,4168.33333333333,4164.23076923077,4171.92307692308,4183.46153846154,4171.79487179487,4090.76923076923,4172.5641025641,4186.02564102564,4181.02564102564,4154.61538461538,4155.76923076923,4170.25641025641,0,0,1.84397835751663,0,1.8123574256897,0,0,0,0
72,0,2587,4173.33333333333,4199.23076923077,4167.69230769231,4170.51282051282,4171.41025641026,4183.07692307692,4169.35897435897,4092.5641025641,4173.07692307692,4188.46153846154,4182.82051282051,4155.38461538462,4158.07692307692,4170,0,0,1.85185857816281,0,1.8123574256897,0,0,0,0
73,0,3528,4173.07692307692,4201.92307692308,4168.58974358974,4168.20512820513,4169.8717948718,4175.76923076923,4168.71794871795,4087.82051282051,4169.8717948718,4180.12820512821,4178.97435897436,4156.53846153846,4154.23076923077,4168.46153846154,0,0,1.85973879880899,0,1.8123574256897,0,0,0,0
74,0,3357,4169.8717948718,4211.66666666667,4168.07692307692,4165.25641025641,4170.64102564103,4173.33333333333,4170,4088.84615384615,4167.17948717949,4171.92307692308,4173.46153846154,4151.66666666667,4151.28205128205,4164.35897435897,0,0,1.86751901945517,0,1.8123574256897,0,0,0,0
75,0,1323,4170.38461538462,4207.5641025641,4173.46153846154,4159.74358974359,4170.64102564103,4173.20512820513,4164.74358974359,4096.15384615385,4167.82051282051,4171.92307692308,4178.20512820513,4153.97435897436,4151.28205128205,4168.07692307692,0,0,1.87529924010135,0,1.8123574256897,0,0,0,0
76,0,1687,4172.69230769231,4203.71794871795,4170.64102564103,4155.38461538462,4170.38461538462,4169.74358974359,4162.5641025641,4101.66666666667,4169.10256410256,4175.12820512821,4182.17948717949,4153.58974358974,4156.92307692308,4170.38461538462,0,0,1.88317946074752,0,1.8123574256897,0,0,0,0
77,0,1197,4170.12820512821,4206.92307692308,4165.38461538462,4161.28205128205,4171.79487179487,4167.94871794872,4164.10256410256,4099.48717948718,4166.41025641026,4176.66666666667,4175.89743589744,4152.5641025641,4159.23076923077,4168.20512820513,0,0,1.8911596813937,0,1.8123574256897,0,0,0,0
78,0,3357,4165.76923076923,4209.48717948718,4167.30769230769,4167.30769230769,4170.89743589744,4168.20512820513,4163.84615384615,4096.02564102564,4163.07692307692,4173.33333333333,4173.58974358974,4155.76923076923,4147.30769230769,4168.20512820513,0,0,1.89913990203988,0,1.8123574256897,0,0,0,0
79,0,1323,4169.48717948718,4212.17948717949,4166.02564102564,4168.20512820513,4172.4358974359,4173.33333333333,4166.66666666667,4103.58974358974,4164.48717948718,4176.15384615385,4180.64102564103,4152.5641025641,4143.71794871795,4167.82051282051,0,0,1.90702012268606,0,1.8123574256897,0,0,0,0
80,0,1687,4175,4209.61538461538,4171.28205128205,4166.28205128205,4176.92307692308,4183.07692307692,4172.17948717949,4112.30769230769,4165.25641025641,4182.69230769231,4180,4152.69230769231,4152.94871794872,4168.71794871795,0,0,1.91490034333224,0,1.8123574256897,0,0,0,0
81,0,1197,4170,4202.5641025641,4169.10256410256,4165.25641025641,4173.58974358974,4184.35897435897,4173.20512820513,4111.02564102564,4162.5641025641,4178.58974358974,4170.89743589744,4151.79487179487,4150.12820512821,4162.5641025641,0,0,1.92278056397841,0,1.8123574256897,0,0,0,0
82,0,3357,4168.58974358974,4203.58974358974,4163.46153846154,4169.10256410256,4169.74358974359,4179.8717948718,4170.76923076923,4108.46153846154,4163.20512820513,4173.46153846154,4172.5641025641,4150.89743589744,4146.02564102564,4158.97435897436,0,0,1.93056078462459,0,1.8123574256897,0,0,0,0
83,0,1323,4173.84615384615,4202.4358974359,4171.41025641026,4170.12820512821,4172.4358974359,4182.05128205128,4170.89743589744,4106.92307692308,4166.15384615385,4179.23076923077,4179.35897435897,4153.97435897436,4150.76923076923,4166.79487179487,0,0,1.93834100527077,0,1.8123574256897,0,0,0,0
84,0,1687,4173.07692307692,4197.17948717949,4169.74358974359,4163.33333333333,4172.5641025641,4181.79487179487,4171.02564102564,4110.12820512821,4166.66666666667,4184.48717948718,4176.02564102564,4152.4358974359,4153.20512820513,4167.05128205128,0,0,1.94622122591695,0,1.8123574256897,0,0,0,0
85,0,1197,4175.51282051282,4202.17948717949,4168.07692307692,4163.20512820513,4169.23076923077,4175.38461538462,4171.53846153846,4122.05128205128,4170,4187.17948717949,4176.66666666667,4157.05128205128,4162.30769230769,4168.46153846154,0,0,1.95420144656313,0,1.8123574256897,0,0,0,0
86,0,3357,4176.53846153846,4205.89743589744,4170,4167.69230769231,4169.74358974359,4169.74358974359,4170,4127.17948717949,4173.58974358974,4193.46153846154,4184.35897435897,4159.10256410256,4170.64102564103,4173.07692307692,0,0,1.9621816672093,0,1.8123574256897,0,0,0,0
87,0,1323,4170.25641025641,4201.53846153846,4168.84615384615,4160.76923076923,4169.35897435897,4167.69230769231,4162.82051282051,4121.92307692308,4165.64102564103,4184.61538461538,4180,4153.33333333333,4160.38461538462,4170,0,0,1.96996188785548,0,1.8123574256897,0,0,0,0
88,0,1687,4169.48717948718,4198.46153846154,4170.25641025641,4153.84615384615,4166.15384615385,4169.35897435897,4157.4358974359,4125.25641025641,4158.58974358974,4169.35897435897,4171.02564102564,4151.28205128205,4149.35897435897,4167.5641025641,0,0,1.97784210850166,0,1.8123574256897,0,0,0,0
89,0,1197,4171.66666666667,4198.07692307692,4168.20512820513,4158.71794871795,4169.35897435897,4171.15384615385,4156.79487179487,4135.89743589744,4166.79487179487,4170.51282051282,4173.97435897436,4147.69230769231,4150.89743589744,4165.38461538462,0,0,1.98572232914784,0,1.8123574256897,0,0,0,0
90,0,3357,4173.71794871795,4193.46153846154,4171.41025641026,4159.48717948718,4168.71794871795,4171.66666666667,4157.17948717949,4138.84615384615,4168.84615384615,4175.25641025641,4179.61538461538,4149.35897435897,4151.92307692308,4166.92307692308,0,0,1.99350254979402,0,1.8123574256897,0,0,0,0
91,0,1323,4169.48717948718,4186.66666666667,4169.8717948718,4149.10256410256,4158.84615384615,4171.79487179487,4162.5641025641,4137.69230769231,4159.23076923077,4172.05128205128,4174.61538461538,4151.15384615385,4149.35897435897,4165.51282051282,0,0,2.00128277044019,0,1.8123574256897,0,0,0,0
92,0,1687,4162.82051282051,4184.35897435897,4162.82051282051,4146.15384615385,4153.84615384615,4169.35897435897,4164.10256410256,4138.84615384615,4158.33333333333,4169.74358974359,4171.15384615385,4148.97435897436,4143.71794871795,4159.10256410256,0,0,2.00916299108637,0,1.8123574256897,0,0,0,0
93,0,1197,4166.66666666667,4184.48717948718,4166.92307692308,4148.33333333333,4154.48717948718,4166.53846153846,4158.33333333333,4141.41025641026,4158.46153846154,4167.94871794872,4170,4151.79487179487,4134.48717948718,4161.53846153846,0,0,2.01714321173255,0,1.8123574256897,0,0,0,0
94,0,3357,4171.53846153846,4185.64102564103,4167.05128205128,4151.53846153846,4156.79487179487,4167.4358974359,4160,4147.69230769231,4158.71794871795,4169.8717948718,4169.74358974359,4150.89743589744,4139.8717948718,4164.8717948718,0,0,2.02512343237873,0,1.8123574256897,0,0,0,0
95,0,1323,4172.17948717949,4186.41025641026,4168.20512820513,4152.94871794872,4157.05128205128,4168.97435897436,4163.58974358974,4155.76923076923,4166.15384615385,4175.51282051282,4174.23076923077,4153.58974358974,4154.48717948718,4166.66666666667,0,0,2.03310365302491,0,1.8123574256897,0,0,0,0
96,0,1687,4169.61538461538,4184.8717948718,4168.33333333333,4146.92307692308,4152.17948717949,4168.20512820513,4158.71794871795,4155.76923076923,4162.17948717949,4172.94871794872,4171.92307692308,4155.25641025641,4149.8717948718,4166.66666666667,0,0,2.04098387367108,0,1.8123574256897,0,0,0,0
97,0,1197,4168.20512820513,4186.41025641026,4163.07692307692,4145.76923076923,4157.05128205128,4168.97435897436,4158.71794871795,4153.71794871795,4156.92307692308,4167.30769230769,4170.51282051282,4149.23076923077,4141.28205128205,4162.82051282051,0,0,2.04886409431726,0,2.06442451477051,0,0,0,0
98,0,3357,4171.02564102564,4189.74358974359,4166.41025641026,4150.64102564103,4164.8717948718,4169.23076923077,4163.58974358974,4159.48717948718,4163.97435897436,4167.69230769231,4173.58974358974,4149.35897435897,4148.07692307692,4164.35897435897,0,0,2.05664431496344,0,2.06442451477051,0,0,0,0
99,0,1323,4170.12820512821,4186.15384615385,4164.23076923077,4152.4358974359,4159.61538461538,4167.30769230769,4158.20512820513,4165.12820512821,4164.74358974359,4169.74358974359,4170.76923076923,4149.48717948718,4155.51282051282,4164.23076923077,0,0,2.06442453560962,0,2.06442451477051,0,0,0,0
100,0,1687,4172.69230769231,4186.28205128205,4163.71794871795,4151.41025641026,4156.66666666667,4166.66666666667,4156.92307692308,4168.71794871795,4160.64102564103,4168.46153846154,4170.25641025641,4150,4152.5641025641,4165.38461538462,0,0,2.0723047562558,0,2.06442451477051,0,0,0,0
101,0,1197,4175,4197.94871794872,4167.05128205128,4152.5641025641,4164.10256410256,4167.69230769231,4165.38461538462,4172.30769230769,4166.41025641026,4168.58974358974,4170.76923076923,4150,4149.8717948718,4166.28205128205,0,0,2.08028497690197,0,2.06442451477051,0,0,0,0
102,0,3357,4168.46153846154,4199.61538461538,4162.82051282051,4155.51282051282,4167.94871794872,4171.53846153846,4168.33333333333,4172.05128205128,4169.48717948718,4177.4358974359,4167.30769230769,4146.79487179487,4152.5641025641,4162.30769230769,0,0,2.08816519754815,0,2.06442451477051,0,0,0,0
103,0,1323,4168.46153846154,4191.92307692308,4166.41025641026,4156.02564102564,4167.17948717949,4180,4168.97435897436,4179.35897435897,4168.84615384615,4189.35897435897,4173.46153846154,4153.84615384615,4158.07692307692,4165,0,0,2.09594541819433,0,2.06442451477051,0,0,0,0
104,0,1687,4175.51282051282,4197.17948717949,4166.02564102564,4157.69230769231,4172.30769230769,4185,4168.20512820513,4193.58974358974,4173.46153846154,4191.41025641026,4180.64102564103,4157.17948717949,4168.07692307692,4166.66666666667,0,0,2.10382563884051,0,2.06442451477051,0,0,0,0
105,0,1197,4179.74358974359,4208.84615384615,4163.84615384615,4163.84615384615,4180,4183.20512820513,4167.69230769231,4195,4172.94871794872,4185.38461538462,4177.05128205128,4155.64102564103,4171.53846153846,4166.41025641026,0,0,2.11180585948669,0,2.06442451477051,0,0,0,0
106,0,3357,4177.82051282051,4206.28205128205,4167.05128205128,4164.10256410256,4180.76923076923,4182.82051282051,4168.58974358974,4192.30769230769,4169.23076923077,4185.64102564103,4180.64102564103,4156.02564102564,4162.4358974359,4169.35897435897,0,0,2.11958608013286,0,2.06442451477051,0,0,0,0
107,0,1323,4176.53846153846,4198.58974358974,4162.94871794872,4156.15384615385,4175,4180.25641025641,4166.79487179487,4200.25641025641,4168.20512820513,4186.28205128205,4184.48717948718,4152.69230769231,4159.61538461538,4168.07692307692,0,0,2.12736630077904,0,2.06442451477051,0,0,0,0
108,0,1687,4180,4200.12820512821,4166.02564102564,4158.58974358974,4171.02564102564,4173.07692307692,4168.71794871795,4205.38461538462,4167.5641025641,4180.76923076923,4179.35897435897,4154.8717948718,4166.41025641026,4169.74358974359,0,0,2.13524652142522,0,2.06442451477051,0,0,0,0
109,0,1197,4180.64102564103,4203.07692307692,4169.74358974359,4167.94871794872,4174.61538461538,4171.28205128205,4169.35897435897,4204.35897435897,4167.5641025641,4179.35897435897,4176.02564102564,4155.76923076923,4168.84615384615,4170,0,0,2.1431267420714,0,2.06442451477051,0,0,0,0
110,0,3357,4179.8717948718,4201.28205128205,4166.92307692308,4166.79487179487,4174.48717948718,4172.69230769231,4162.17948717949,4203.84615384615,4164.10256410256,4180.12820512821,4174.61538461538,4154.10256410256,4158.33333333333,4167.17948717949,0,0,2.15090696271757,0,2.06442451477051,0,0,0,0
111,0,1323,4178.71794871795,4200.12820512821,4165.51282051282,4160.64102564103,4168.58974358974,4170.89743589744,4163.71794871795,4201.92307692308,4154.61538461538,4171.79487179487,4171.79487179487,4153.84615384615,4150.89743589744,4167.4358974359,0,0,2.15868718336375,0,2.06442451477051,0,0,0,0
112,0,1687,4176.79487179487,4209.10256410256,4164.23076923077,4160.12820512821,4170.89743589744,4171.15384615385,4167.69230769231,4205.64102564103,4155.76923076923,4170.12820512821,4171.66666666667,4149.10256410256,4161.15384615385,4166.15384615385,0,0,2.16656740400993,0,2.06442451477051,0,0,0,0
113,0,1197,4179.61538461538,4218.33333333333,4169.48717948718,4161.66666666667,4177.17948717949,4173.33333333333,4158.58974358974,4217.05128205128,4167.17948717949,4179.61538461538,4178.33333333333,4152.94871794872,4164.35897435897,4165.89743589744,0,0,2.17454762465611,0,2.06442451477051,0,0,0,0
114,0,3357,4181.92307692308,4215.64102564103,4167.69230769231,4166.79487179487,4178.84615384615,4173.07692307692,4157.4358974359,4218.71794871795,4164.74358974359,4186.02564102564,4180.51282051282,4156.02564102564,4160.12820512821,4165.25641025641,0,0,2.18252784530229,0,2.06442451477051,0,0,0,0
115,0,1323,4182.69230769231,4215.64102564103,4167.17948717949,4171.79487179487,4174.8717948718,4171.53846153846,4168.20512820513,4218.71794871795,4159.48717948718,4185.38461538462,4176.28205128205,4155.38461538462,4167.17948717949,4169.61538461538,0,0,2.19030806594846,0,2.06442451477051,0,0,0,0
116,0,1687,4181.02564102564,4217.69230769231,4171.66666666667,4169.74358974359,4170.64102564103,4168.33333333333,4166.28205128205,4227.4358974359,4162.82051282051,4182.05128205128,4174.74358974359,4158.84615384615,4170.64102564103,4174.10256410256,0,0,2.19818828659464,0,2.06442451477051,0,0,0,0
117,0,1197,4176.92307692308,4213.20512820513,4166.28205128205,4167.5641025641,4170.51282051282,4167.82051282051,4161.02564102564,4235.12820512821,4164.23076923077,4183.84615384615,4177.4358974359,4155.38461538462,4164.48717948718,4166.66666666667,0,0,2.20606850724082,0,2.06442451477051,0,0,0,0
118,0,3357,4176.79487179487,4209.23076923077,4170.38461538462,4168.20512820513,4169.74358974359,4170.76923076923,4170.12820512821,4236.79487179487,4164.10256410256,4186.41025641026,4180.38461538462,4157.05128205128,4165.89743589744,4166.28205128205,0,0,2.213848727887,0,2.06442451477051,0,0,0,0
119,0,1323,4176.15384615385,4205.89743589744,4172.69230769231,4166.79487179487,4169.23076923077,4169.10256410256,4166.92307692308,4236.41025641026,4166.41025641026,4185,4179.74358974359,4159.74358974359,4169.61538461538,4170.38461538462,0,0,2.22162894853317,0,2.06442451477051,0,0,0,0
120,0,1687,4170.12820512821,4198.97435897436,4166.53846153846,4159.48717948718,4167.82051282051,4164.8717948718,4153.97435897436,4235.12820512821,4162.17948717949,4183.07692307692,4178.33333333333,4155.12820512821,4161.53846153846,4166.92307692308,0,0,2.22950916917935,0,2.06442451477051,0,0,0,0
121,0,1197,4166.41025641026,4196.66666666667,4168.84615384615,4153.07692307692,4167.17948717949,4166.53846153846,4158.71794871795,4234.35897435897,4156.28205128205,4179.10256410256,4171.92307692308,4156.28205128205,4156.15384615385,4164.74358974359,0,0,2.23748938982553,0,2.06442451477051,0,0,0,0
122,0,3357,4166.79487179487,4197.4358974359,4168.20512820513,4158.07692307692,4169.61538461538,4170.25641025641,4169.74358974359,4237.05128205128,4161.28205128205,4177.30769230769,4166.41025641026,4156.28205128205,4157.5641025641,4165,0,0,2.24546961047171,0,2.06442451477051,0,0,0,0
123,0,1323,4173.84615384615,4197.17948717949,4170.51282051282,4166.66666666667,4170.89743589744,4171.15384615385,4171.15384615385,4243.33333333333,4162.82051282051,4179.48717948718,4174.10256410256,4158.71794871795,4156.28205128205,4171.02564102564,0,0,2.25344983111789,0,2.06442451477051,0,0,0,0
124,0,1687,4177.5641025641,4200.64102564103,4172.17948717949,4170,4171.28205128205,4171.79487179487,4170.64102564103,4245.51282051282,4157.30769230769,4177.94871794872,4178.71794871795,4160.89743589744,4157.17948717949,4172.69230769231,0,0,2.26133005176406,0,2.06442451477051,0,0,0,0
125,0,1197,4170.64102564103,4200.25641025641,4170.12820512821,4168.97435897436,4171.41025641026,4170.64102564103,4173.58974358974,4240.89743589744,4153.46153846154,4175.25641025641,4172.82051282051,4158.71794871795,4160.12820512821,4167.69230769231,0,0,2.26921027241024,0,2.06442451477051,0,0,0,0
126,0,3357,4170.64102564103,4198.97435897436,4174.23076923077,4167.82051282051,4173.33333333333,4170.12820512821,4173.84615384615,4241.41025641026,4152.82051282051,4178.33333333333,4173.33333333333,4162.05128205128,4164.23076923077,4169.74358974359,0,0,2.27699049305642,0,2.06442451477051,0,0,0,0
127,0,54,4171.92307692308,4200.89743589744,4172.17948717949,4166.79487179487,4174.61538461538,4172.17948717949,4171.28205128205,4246.66666666667,4157.05128205128,4181.79487179487,4178.97435897436,4159.23076923077,4169.61538461538,4168.46153846154,0,0,2.2847707137026,0,2.06442451477051,0,0,0,0
0,0,982,4169.8717948718,4194.35897435897,4172.69230769231,4166.15384615385,4172.05128205128,4171.15384615385,4167.17948717949,4246.66666666667,4161.66666666667,4178.71794871795,4175.25641025641,4158.33333333333,4168.07692307692,4167.17948717949,0,0,2.29265093434878,0,2.06442451477051,0,0,0,0
1,0,3296,4169.74358974359,4189.48717948718,4171.92307692308,4164.35897435897,4169.23076923077,4168.20512820513,4165,4247.17948717949,4161.92307692308,4174.8717948718,4167.05128205128,4160,4157.69230769231,4166.79487179487,0,0,2.30063115499495,0,2.06442451477051,0,0,0,0
2,0,2333,4164.35897435897,4195.51282051282,4163.97435897436,4157.4358974359,4169.48717948718,4167.94871794872,4165,4247.5641025641,4160,4172.05128205128,4167.17948717949,4154.35897435897,4152.5641025641,4160.12820512821,0,0,2.30851137564113,0,2.06442451477051,0,0,0,0
3,0,3083,4157.4358974359,4193.97435897436,4166.28205128205,4151.53846153846,4169.10256410256,4168.07692307692,4163.97435897436,4243.33333333333,4158.20512820513,4167.05128205128,4167.05128205128,4151.53846153846,4152.4358974359,4158.58974358974,0,0,2.31629159628731,0,2.06442451477051,0,0,0,0
4,0,3760,4154.74358974359,4184.35897435897,4164.8717948718,4151.66666666667,4164.8717948718,4167.30769230769,4164.48717948718,4240.51282051282,4155.89743589744,4164.48717948718,4163.97435897436,4148.07692307692,4145.64102564103,4156.66666666667,0,0,2.32417181693349,0,2.06442451477051,0,0,0,0
5,0,3174,4161.53846153846,4188.33333333333,4166.66666666667,4154.74358974359,4164.23076923077,4167.17948717949,4166.79487179487,4242.69230769231,4154.61538461538,4167.30769230769,4167.4358974359,4151.66666666667,4147.05128205128,4160.25641025641,0,0,2.33215203757967,0,2.06442451477051,0,0,0,0
6,0,3086,4166.53846153846,4196.92307692308,4171.66666666667,4156.41025641026,4167.82051282051,4166.41025641026,4167.82051282051,4244.48717948718,4153.07692307692,4171.15384615385,4170.38461538462,4155.25641025641,4159.61538461538,4168.84615384615,0,0,2.34003225822584,0,2.06442451477051,0,0,0,0
7,0,2906,4164.61538461538,4198.84615384615,4166.92307692308,4157.94871794872,4169.35897435897,4168.20512820513,4168.46153846154,4245.64102564103,4156.79487179487,4171.66666666667,4170.12820512821,4151.53846153846,4163.71794871795,4168.84615384615,0,0,2.34781247887202,0,2.06442451477051,0,0,0,0
8,0,2587,4168.33333333333,4200.51282051282,4168.33333333333,4159.10256410256,4168.33333333333,4171.15384615385,4168.07692307692,4246.66666666667,4161.92307692308,4175.38461538462,4169.35897435897,4156.66666666667,4163.71794871795,4169.35897435897,0,0,2.3556926995182,0,2.06442451477051,0,0,0,0
9,0,3534,4171.66666666667,4199.61538461538,4167.05128205128,4160.76923076923,4169.74358974359,4168.97435897436,4165.76923076923,4247.82051282051,4161.02564102564,4184.48717948718,4169.23076923077,4158.07692307692,4168.84615384615,4169.10256410256,0,0,2.36357292016438,0,2.06442451477051,0,0,0,0
10,0,3367,4173.07692307692,4199.23076923077,4167.05128205128,4164.8717948718,4172.05128205128,4166.79487179487,4168.97435897436,4251.92307692308,4161.41025641026,4187.30769230769,4172.94871794872,4158.20512820513,4170.64102564103,4170.25641025641,0,0,2.37135314081055,0,2.06442451477051,0,0,0,0
11,0,1325,4170,4201.15384615385,4171.79487179487,4162.82051282051,4169.48717948718,4168.46153846154,4171.92307692308,4252.17948717949,4165,4178.33333333333,4172.17948717949,4159.10256410256,4166.28205128205,4172.05128205128,0,0,2.37913336145673,0,2.06442451477051,0,0,0,0
12,0,1459,4164.8717948718,4200.25641025641,4166.79487179487,4155.51282051282,4171.41025641026,4168.46153846154,4169.61538461538,4247.17948717949,4165.89743589744,4171.79487179487,4167.17948717949,4152.94871794872,4159.23076923077,4168.71794871795,0,0,2.38701358210291,0,2.06442451477051,0,0,0,0
13,0,1396,4165.38461538462,4199.61538461538,4166.28205128205,4153.07692307692,4173.97435897436,4169.74358974359,4170,4245.38461538462,4166.41025641026,4178.58974358974,4166.53846153846,4154.10256410256,4154.35897435897,4168.07692307692,0,0,2.39499380274909,0,2.06442451477051,0,0,0,0
14,0,3367,4166.41025641026,4200.64102564103,4167.4358974359,4160.64102564103,4174.74358974359,4172.82051282051,4173.07692307692,4245.38461538462,4168.84615384615,4187.4358974359,4169.74358974359,4155.76923076923,4161.66666666667,4166.79487179487,0,0,2.40297402339527,0,2.06442451477051,0,0,0,0
15,0,1325,4171.41025641026,4202.4358974359,4168.20512820513,4168.97435897436,4179.48717948718,4170.76923076923,4171.41025641026,4245.76923076923,4168.71794871795,4185.64102564103,4171.66666666667,4158.58974358974,4173.07692307692,4167.82051282051,0,0,2.41095424404144,0,2.06442451477051,0,0,0,0
16,0,0,4178.58974358974,4207.4358974359,4170.51282051282,4170.51282051282,4180.25641025641,4167.94871794872,4169.10256410256,4246.92307692308,4167.82051282051,4182.30769230769,4172.5641025641,4164.74358974359,4175.12820512821,4171.53846153846,0,0,2.41883446468762,0,2.06442451477051,0,0,0,0
17,0,0,4176.53846153846,4209.35897435897,4165,4171.79487179487,4179.10256410256,4169.61538461538,4171.53846153846,4248.84615384615,4171.02564102564,4186.79487179487,4173.84615384615,4162.05128205128,4175.38461538462,4169.35897435897,0,0,2.4267146853338,0,2.44227504730225,0,0,0,0
18,0,0,4170.25641025641,4203.46153846154,4166.28205128205,4167.69230769231,4178.58974358974,4168.71794871795,4172.94871794872,4245.51282051282,4166.66666666667,4182.30769230769,4171.79487179487,4159.48717948718,4172.5641025641,4168.97435897436,0,0,2.43449490597998,0,2.44227504730225,0,0,0,0
19,0,0,4166.41025641026,4200.76923076923,4168.84615384615,4158.97435897436,4175.38461538462,4165.38461538462,4171.28205128205,4239.23076923077,4158.58974358974,4171.53846153846,4167.94871794872,4156.79487179487,4166.92307692308,4168.71794871795,0,0,2.44227512662616,0,2.44227504730225,0,0,0,0
20,0,0,4167.4358974359,4202.94871794872,4168.46153846154,4156.28205128205,4171.53846153846,4168.97435897436,4167.30769230769,4241.02564102564,4163.71794871795,4170.64102564103,4169.23076923077,4155.38461538462,4166.92307692308,4167.17948717949,0,0,2.45015534727233,0,2.44227504730225,0,0,0,0
21,0,0,4165.64102564103,4198.58974358974,4169.23076923077,4157.94871794872,4171.53846153846,4170.38461538462,4160.76923076923,4245.51282051282,4168.46153846154,4171.28205128205,4171.28205128205,4158.20512820513,4165.25641025641,4168.07692307692,0,0,2.45813556791851,0,2.44227504730225,0,0,0,0
22,0,0,4156.92307692308,4197.5641025641,4161.66666666667,4154.23076923077,4172.17948717949,4159.8717948718,4152.4358974359,4241.53846153846,4158.46153846154,4173.20512820513,4166.15384615385,4153.20512820513,4161.53846153846,4162.30769230769,0,0,2.46611578856469,0,2.44227504730225,0,0,0,0
23,0,0,4163.33333333333,4203.20512820513,4164.10256410256,4156.92307692308,4170.64102564103,4157.4358974359,4153.46153846154,4242.17948717949,4156.53846153846,4181.92307692308,4168.71794871795,4155.12820512821,4166.28205128205,4163.46153846154,0,0,2.47409600921087,0,2.44227504730225,0,0,0,0
24,0,0,4178.07692307692,4203.58974358974,4169.8717948718,4166.79487179487,4173.71794871795,4166.92307692308,4161.41025641026,4247.94871794872,4167.05128205128,4185.25641025641,4178.07692307692,4161.02564102564,4172.94871794872,4170.51282051282,0,0,2.48197622985705,0,2.44227504730225,0,0,0,0
25,0,0,4174.74358974359,4201.92307692308,4167.69230769231,4162.05128205128,4173.84615384615,4165.38461538462,4159.8717948718,4238.71794871795,4160.25641025641,4172.94871794872,4173.58974358974,4159.23076923077,4168.84615384615,4169.48717948718,0,0,2.48985645050322,0,2.44227504730225,0,0,0,0
26,0,0,4167.82051282051,4202.05128205128,4167.82051282051,4151.41025641026,4170.64102564103,4160.25641025641,4158.84615384615,4229.8717948718,4151.79487179487,4163.58974358974,4165.51282051282,4158.58974358974,4163.46153846154,4166.66666666667,0,0,2.4976366711494,0,2.44227504730225,0,0,0,0
27,0,0,4171.79487179487,4202.82051282051,4165.25641025641,4156.79487179487,4172.4358974359,4166.02564102564,4167.4358974359,4241.28205128205,4165,4173.84615384615,4169.10256410256,4155.89743589744,4166.79487179487,4168.58974358974,0,0,2.50541689179558,0,2.44227504730225,0,0,0,0
28,0,0,4174.8717948718,4204.23076923077,4168.33333333333,4162.05128205128,4173.71794871795,4167.94871794872,4172.82051282051,4249.10256410256,4173.46153846154,4181.28205128205,4172.82051282051,4157.69230769231,4168.71794871795,4175.38461538462,0,0,2.51329711244176,0,2.44227504730225,0,0,0,0
29,0,0,4168.07692307692,4202.94871794872,4168.07692307692,4156.15384615385,4172.30769230769,4164.35897435897,4170.25641025641,4243.20512820513,4165.38461538462,4170.89743589744,4173.07692307692,4158.20512820513,4165.51282051282,4171.41025641026,0,0,2.52127733308793,0,2.44227504730225,0,0,0,0
30,0,0,4166.92307692308,4200,4167.17948717949,4161.02564102564,4178.46153846154,4168.07692307692,4171.02564102564,4245.12820512821,4165.25641025641,4171.53846153846,4178.97435897436,4155.25641025641,4167.5641025641,4165.38461538462,0,0,2.52925755373411,0,2.44227504730225,0,0,0,0
31,0,0,4177.82051282051,4205,4175.64102564103,4170.12820512821,4184.35897435897,4171.28205128205,4174.23076923077,4259.61538461538,4180.38461538462,4191.53846153846,4187.5641025641,4160.12820512821,4176.28205128205,4176.15384615385,0,0,2.53723777438029,0,2.44227504730225,0,0,0,0
32,0,0,4175.51282051282,4208.33333333333,4172.05128205128,4164.35897435897,4178.33333333333,4171.66666666667,4171.92307692308,4263.71794871795,4186.66666666667,4197.5641025641,4187.5641025641,4160,4176.28205128205,4179.35897435897,0,0,2.54511799502647,0,2.44227504730225,0,0,0,0
33,0,0,4167.05128205128,4201.79487179487,4168.97435897436,4152.69230769231,4174.74358974359,4172.69230769231,4168.97435897436,4252.94871794872,4172.94871794872,4185.25641025641,4182.82051282051,4160.12820512821,4166.53846153846,4173.20512820513,0,0,2.55299821567265,0,2.56855869293213,0,0,0,0
34,0,0,4167.5641025641,4201.28205128205,4170.76923076923,4153.97435897436,4180,4170.38461538462,4168.71794871795,4246.28205128205,4162.05128205128,4181.02564102564,4182.82051282051,4159.74358974359,4167.82051282051,4172.5641025641,0,0,2.56077843631882,0,2.56855869293213,0,0,0,0
35,0,0,4168.46153846154,4204.61538461538,4167.30769230769,4165.51282051282,4183.20512820513,4168.46153846154,4169.48717948718,4248.33333333333,4163.46153846154,4178.97435897436,4181.41025641026,4156.41025641026,4173.46153846154,4172.69230769231,0,0,2.568558656965,0,2.56855869293213,0,0,0,0
36,0,0,4168.33333333333,4201.02564102564,4170.51282051282,4164.35897435897,4177.94871794872,4168.97435897436,4168.97435897436,4245.51282051282,4158.58974358974,4167.5641025641,4177.5641025641,4158.97435897436,4167.5641025641,4173.71794871795,0,0,2.57643887761118,0,2.56855869293213,0,0,0,0
37,0,0,4167.94871794872,4198.71794871795,4167.94871794872,4157.05128205128,4175.89743589744,4168.58974358974,4169.74358974359,4235.25641025641,4155.38461538462,4168.20512820513,4176.41025641026,4157.05128205128,4163.84615384615,4171.79487179487,0,0,2.58431909825736,0,2.56855869293213,0,0,0,0
38,0,0,4165.51282051282,4202.5641025641,4165.51282051282,4157.5641025641,4175,4167.5641025641,4170.89743589744,4230.12820512821,4164.23076923077,4176.92307692308,4176.02564102564,4155.76923076923,4162.17948717949,4170.25641025641,0,0,2.59209931890354,0,2.56855869293213,0,0,0,0
39,0,0,4158.71794871795,4201.92307692308,4167.69230769231,4159.74358974359,4173.33333333333,4165.89743589744,4167.05128205128,4235.64102564103,4163.71794871795,4171.79487179487,4169.35897435897,4153.84615384615,4150,4168.46153846154,0,0,2.59987953954971,0,2.56855869293213,0,0,0,0
40,0,0,4160.38461538462,4201.53846153846,4167.17948717949,4161.53846153846,4180.12820512821,4169.8717948718,4167.5641025641,4244.8717948718,4160.12820512821,4170,4167.82051282051,4152.5641025641,4151.28205128205,4167.4358974359,0,0,2.60775976019589,0,2.56855869293213,0,0,0,0
41,0,0,4172.4358974359,4207.69230769231,4172.4358974359,4167.4358974359,4187.69230769231,4178.20512820513,4174.23076923077,4252.4358974359,4168.97435897436,4181.92307692308,4181.15384615385,4164.23076923077,4169.35897435897,4176.92307692308,0,0,2.61573998084207,0,2.56855869293213,0,0,0,0
42,0,0,4173.33333333333,4215.89743589744,4169.23076923077,4171.92307692308,4188.97435897436,4177.4358974359,4175.12820512821,4253.97435897436,4176.53846153846,4189.74358974359,4186.28205128205,4164.35897435897,4176.41025641026,4178.84615384615,0,0,2.62352020148825,0,2.56855869293213,0,0,0,0
43,0,0,4168.20512820513,4217.82051282051,4167.05128205128,4168.97435897436,4186.02564102564,4169.74358974359,4170.76923076923,4246.15384615385,4170.89743589744,4185.25641025641,4177.82051282051,4155.38461538462,4171.79487179487,4172.82051282051,0,0,2.63130042213442,0,2.56855869293213,0,0,0,0
44,0,0,4165.12820512821,4208.20512820513,4171.41025641026,4164.8717948718,4180.12820512821,4167.82051282051,4170.25641025641,4236.79487179487,4163.84615384615,4178.20512820513,4172.30769230769,4155.89743589744,4166.79487179487,4171.79487179487,0,0,2.6391806427806,0,2.56855869293213,0,0,0,0
45,0,0,4163.07692307692,4199.74358974359,4167.05128205128,4160.89743589744,4173.20512820513,4167.5641025641,4170.64102564103,4228.07692307692,4161.41025641026,4172.69230769231,4172.4358974359,4156.28205128205,4163.33333333333,4170.89743589744,0,0,2.64716086342678,0,2.56855869293213,0,0,0,0
46,0,0,4164.8717948718,4204.74358974359,4168.33333333333,4159.35897435897,4174.61538461538,4165.89743589744,4168.20512820513,4221.15384615385,4158.20512820513,4171.28205128205,4172.94871794872,4156.15384615385,4159.23076923077,4170.64102564103,0,0,2.65514108407296,0,2.56855869293213,0,0,0,0
47,0,0,4166.28205128205,4205.51282051282,4166.79487179487,4163.46153846154,4183.07692307692,4167.05128205128,4167.5641025641,4219.35897435897,4155.25641025641,4169.61538461538,4168.97435897436,4151.41025641026,4154.61538461538,4166.53846153846,0,0,2.66312130471914,0,2.56855869293213,0,0,0,0
48,0,0,4172.05128205128,4201.15384615385,4165.89743589744,4167.17948717949,4183.07692307692,4168.84615384615,4168.97435897436,4225.12820512821,4158.71794871795,4166.28205128205,4167.17948717949,4150.38461538462,4157.69230769231,4166.92307692308,0,0,2.67100152536531,0,2.56855869293213,0,0,0,0
49,0,0,4181.02564102564,4210.38461538462,4173.07692307692,4172.5641025641,4183.20512820513,4168.84615384615,4171.02564102564,4232.5641025641,4169.8717948718,4173.46153846154,4174.8717948718,4158.20512820513,4169.48717948718,4176.28205128205,0,0,2.67888174601149,0,2.69464230537415,0,0,0,0
50,0,0,4176.41025641026,4216.66666666667,4173.33333333333,4169.10256410256,4186.92307692308,4168.46153846154,4171.15384615385,4232.94871794872,4168.97435897436,4179.35897435897,4178.84615384615,4156.66666666667,4172.05128205128,4175.76923076923,0,0,2.68686196665767,0,2.69464230537415,0,0,0,0
51,0,0,4167.30769230769,4205.64102564103,4173.58974358974,4157.5641025641,4184.74358974359,4168.20512820513,4169.23076923077,4229.48717948718,4158.84615384615,4170.64102564103,4171.28205128205,4153.71794871795,4164.8717948718,4169.35897435897,0,0,2.69464218730385,0,2.69464230537415,0,0,0,0
52,0,0,4164.61538461538,4199.61538461538,4166.66666666667,4157.69230769231,4184.48717948718,4171.02564102564,4168.71794871795,4231.79487179487,4159.74358974359,4168.46153846154,4167.82051282051,4151.15384615385,4164.74358974359,4167.17948717949,0,0,2.70252240795003,0,2.69464230537415,0,0,0,0
53,0,0,4166.28205128205,4201.53846153846,4162.82051282051,4165.51282051282,4187.17948717949,4172.05128205128,4168.71794871795,4232.30769230769,4161.28205128205,4174.8717948718,4171.53846153846,4151.53846153846,4162.17948717949,4169.8717948718,0,0,2.7104026285962,0,2.69464230537415,0,0,0,0
54,0,0,4170,4199.35897435897,4170,4167.05128205128,4181.15384615385,4167.94871794872,4168.20512820513,4222.05128205128,4153.71794871795,4166.66666666667,4170.25641025641,4155.89743589744,4151.28205128205,4171.02564102564,0,0,2.71818284924238,0,2.69464230537415,0,0,0,0
55,0,0,4167.4358974359,4198.97435897436,4166.66666666667,4165.51282051282,4177.94871794872,4165.64102564103,4168.46153846154,4212.05128205128,4149.74358974359,4154.8717948718,4163.33333333333,4151.15384615385,4150.12820512821,4164.48717948718,0,0,2.72596306988856,0,2.69464230537415,0,0,0,0
56,0,0,4166.02564102564,4206.92307692308,4166.15384615385,4168.20512820513,4184.35897435897,4167.05128205128,4168.84615384615,4214.48717948718,4149.74358974359,4157.94871794872,4163.71794871795,4151.92307692308,4157.94871794872,4168.71794871795,0,0,2.73384329053474,0,2.69464230537415,0,0,0,0
57,0,0,4173.46153846154,4210.76923076923,4169.8717948718,4172.30769230769,4187.17948717949,4168.20512820513,4169.35897435897,4223.46153846154,4151.79487179487,4168.97435897436,4170.25641025641,4156.79487179487,4166.66666666667,4177.05128205128,0,0,2.74182351118092,0,2.69464230537415,0,0,0,0
58,0,0,4180.38461538462,4207.69230769231,4172.05128205128,4173.20512820513,4189.61538461538,4168.33333333333,4169.10256410256,4233.07692307692,4163.20512820513,4181.66666666667,4174.10256410256,4158.58974358974,4171.53846153846,4175,0,0,2.74980373182709,0,2.69464230537415,0,0,0,0
59,0,0,4178.58974358974,4207.4358974359,4176.15384615385,4175.38461538462,4194.23076923077,4170.89743589744,4171.66666666667,4239.61538461538,4171.53846153846,4185.38461538462,4176.15384615385,4160,4163.33333333333,4175.12820512821,0,0,2.75758395247327,0,2.69464230537415,0,0,0,0
60,0,0,4177.69230769231,4216.15384615385,4173.20512820513,4179.23076923077,4198.20512820513,4179.74358974359,4178.58974358974,4246.28205128205,4172.05128205128,4186.66666666667,4177.69230769231,4158.84615384615,4161.92307692308,4176.92307692308,0,0,2.76546417311945,0,2.69464230537415,0,0,0,0
61,0,0,4182.94871794872,4223.07692307692,4174.61538461538,4177.69230769231,4199.8717948718,4185.12820512821,4180.38461538462,4249.23076923077,4175.64102564103,4192.82051282051,4181.92307692308,4165.64102564103,4174.35897435897,4182.05128205128,0,0,2.77334439376563,0,2.69464230537415,0,0,0,0
62,0,0,4178.33333333333,4213.46153846154,4174.23076923077,4168.71794871795,4194.10256410256,4175.51282051282,4171.41025641026,4239.35897435897,4176.53846153846,4192.05128205128,4180.12820512821,4166.66666666667,4174.61538461538,4181.41025641026,0,0,2.7811246144118,0,2.69464230537415,0,0,0,0
63,0,0,4173.46153846154,4204.23076923077,4170.38461538462,4165.25641025641,4184.23076923077,4166.02564102564,4166.28205128205,4231.53846153846,4172.17948717949,4187.5641025641,4173.97435897436,4157.82051282051,4169.35897435897,4173.71794871795,0,0,2.78890483505798,0,2.69464230537415,0,0,0,0
64,0,987,4177.69230769231,4205.64102564103,4173.07692307692,4167.4358974359,4184.74358974359,4169.48717948718,4169.48717948718,4231.66666666667,4163.84615384615,4183.46153846154,4172.30769230769,4156.02564102564,4170.25641025641,4172.94871794872,0,0,2.79678505570416,0,2.69464230537415,0,0,0,0
65,0,3296,4175.76923076923,4202.30769230769,4168.33333333333,4166.79487179487,4190,4167.4358974359,4167.94871794872,4222.4358974359,4156.15384615385,4173.33333333333,4170.12820512821,4152.82051282051,4161.53846153846,4171.66666666667,0,0,2.80476527635034,0,2.82052564620972,0,0,0,0
66,0,2332,4174.8717948718,4200.51282051282,4168.46153846154,4167.17948717949,4187.17948717949,4160.64102564103,4166.02564102564,4213.71794871795,4157.5641025641,4167.5641025641,4170.12820512821,4152.4358974359,4154.10256410256,4172.17948717949,0,0,2.81274549699652,0,2.82052564620972,0,0,0,0
67,0,3077,4177.30769230769,4205.64102564103,4171.28205128205,4164.35897435897,4186.53846153846,4165.64102564103,4169.74358974359,4221.28205128205,4166.53846153846,4178.20512820513,4176.15384615385,4155,4166.02564102564,4173.84615384615,0,0,2.82052571764269,0,2.82052564620972,0,0,0,0
68,0,3597,4171.28205128205,4203.97435897436,4165.51282051282,4157.17948717949,4187.30769230769,4170.64102564103,4169.8717948718,4226.02564102564,4170.12820512821,4182.17948717949,4180.76923076923,4151.53846153846,4169.48717948718,4170.89743589744,0,0,2.82840593828887,0,2.82052564620972,0,0,0,0
69,0,3178,4166.53846153846,4196.15384615385,4166.02564102564,4154.74358974359,4182.69230769231,4166.41025641026,4167.4358974359,4217.69230769231,4164.61538461538,4167.82051282051,4174.10256410256,4152.4358974359,4152.69230769231,4171.92307692308,0,0,2.83628615893505,0,2.82052564620972,0,0,0,0
70,0,3088,4169.61538461538,4196.53846153846,4164.74358974359,4159.10256410256,4183.71794871795,4163.46153846154,4166.79487179487,4219.61538461538,4163.20512820513,4165.12820512821,4170.38461538462,4153.33333333333,4151.66666666667,4173.07692307692,0,0,2.84406637958123,0,2.82052564620972,0,0,0,0
71,0,2906,4175.64102564103,4201.92307692308,4166.92307692308,4164.61538461538,4187.94871794872,4164.61538461538,4163.97435897436,4229.48717948718,4168.71794871795,4178.07692307692,4181.28205128205,4157.17948717949,4166.79487179487,4176.53846153846,0,0,2.8518466002274,0,2.82052564620972,0,0,0,0
72,0,2592,4175.51282051282,4200.76923076923,4170.64102564103,4166.92307692308,4186.15384615385,4166.28205128205,4162.30769230769,4226.02564102564,4170.12820512821,4178.84615384615,4187.05128205128,4160.38461538462,4169.8717948718,4179.48717948718,0,0,2.85972682087358,0,2.82052564620972,0,0,0,0
73,0,3541,4171.28205128205,4201.41025641026,4167.17948717949,4167.4358974359,4184.23076923077,4163.71794871795,4166.28205128205,4216.28205128205,4160.25641025641,4171.15384615385,4183.33333333333,4156.15384615385,4164.10256410256,4175.25641025641,0,0,2.86770704151976,0,2.82052564620972,0,0,0,0
74,0,3358,4177.5641025641,4210.25641025641,4172.69230769231,4167.94871794872,4187.05128205128,4159.23076923077,4168.84615384615,4214.35897435897,4152.30769230769,4171.28205128205,4184.48717948718,4160.38461538462,4167.82051282051,4177.94871794872,0,0,2.87568726216594,0,2.82052564620972,0,0,0,0
75,0,1323,4180.12820512821,4213.84615384615,4172.30769230769,4169.74358974359,4189.35897435897,4162.5641025641,4166.28205128205,4213.97435897436,4153.97435897436,4176.02564102564,4183.97435897436,4160.51282051282,4173.71794871795,4179.10256410256,0,0,2.88366748281212,0,2.82052564620972,0,0,0,0
76,0,1640,4172.17948717949,4205.76923076923,4168.07692307692,4169.10256410256,4187.94871794872,4167.82051282051,4165.38461538462,4210.76923076923,4153.58974358974,4171.92307692308,4174.8717948718,4156.02564102564,4168.71794871795,4174.10256410256,0,0,2.89154770345829,0,2.82052564620972,0,0,0,0
77,0,1225,4170.64102564103,4201.15384615385,4171.28205128205,4168.07692307692,4185.89743589744,4167.94871794872,4169.10256410256,4211.53846153846,4156.66666666667,4168.58974358974,4174.23076923077,4156.28205128205,4162.94871794872,4174.10256410256,0,0,2.89942792410447,0,2.82052564620972,0,0,0,0
78,0,3358,4173.33333333333,4205.25641025641,4168.71794871795,4170.51282051282,4186.53846153846,4169.74358974359,4170.76923076923,4215.64102564103,4167.69230769231,4179.61538461538,4183.97435897436,4158.07692307692,4170.51282051282,4175.64102564103,0,0,2.90720814475065,0,2.82052564620972,0,0,0,0
79,0,1323,4173.20512820513,4202.4358974359,4169.35897435897,4168.46153846154,4184.8717948718,4170.25641025641,4170.64102564103,4221.02564102564,4170.12820512821,4186.53846153846,4186.28205128205,4163.46153846154,4176.92307692308,4181.53846153846,0,0,2.91498836539683,0,2.82052564620972,0,0,0,0
80,0,1640,4170.64102564103,4197.17948717949,4167.69230769231,4165.51282051282,4183.84615384615,4169.35897435897,4175.64102564103,4227.94871794872,4167.30769230769,4183.71794871795,4181.92307692308,4159.10256410256,4173.46153846154,4180.12820512821,0,0,2.92286858604301,0,2.82052564620972,0,0,0,0
81,0,1225,4170.76923076923,4201.66666666667,4165,4166.92307692308,4187.69230769231,4174.23076923077,4181.02564102564,4234.35897435897,4172.4358974359,4186.79487179487,4183.71794871795,4156.92307692308,4170.64102564103,4173.84615384615,0,0,2.93084880668918,0,2.82052564620972,0,0,0,0
82,0,3358,4171.53846153846,4204.8717948718,4166.28205128205,4167.30769230769,4187.94871794872,4175.12820512821,4179.61538461538,4235.64102564103,4176.02564102564,4188.71794871795,4186.28205128205,4162.30769230769,4167.94871794872,4175.64102564103,0,0,2.93882902733536,0,2.82052564620972,0,0,0,0
83,0,1323,4173.46153846154,4200.25641025641,4167.4358974359,4167.82051282051,4184.48717948718,4167.69230769231,4171.53846153846,4228.33333333333,4171.41025641026,4177.05128205128,4180.51282051282,4158.84615384615,4162.5641025641,4177.94871794872,0,0,2.94680924798154,0,2.82052564620972,0,0,0,0
84,0,1640,4179.74358974359,4198.84615384615,4175.64102564103,4169.61538461538,4187.69230769231,4168.07692307692,4170.76923076923,4229.8717948718,4171.92307692308,4172.4358974359,4176.79487179487,4159.8717948718,4164.48717948718,4180.76923076923,0,0,2.95468946862772,0,2.82052564620972,0,0,0,0
85,0,1225,4176.15384615385,4203.20512820513,4171.53846153846,4166.92307692308,4191.66666666667,4175.12820512821,4180.76923076923,4241.79487179487,4178.58974358974,4186.92307692308,4179.8717948718,4160.25641025641,4170.64102564103,4178.84615384615,0,0,2.9625696892739,0,2.82052564620972,0,0,0,0
86,0,3358,4168.71794871795,4204.10256410256,4163.07692307692,4164.23076923077,4186.53846153846,4174.61538461538,4181.02564102564,4241.15384615385,4180.25641025641,4191.15384615385,4185.76923076923,4157.69230769231,4170.25641025641,4175.64102564103,0,0,2.97034990992007,0,2.82052564620972,0,0,0,0
87,0,1323,4171.41025641026,4203.46153846154,4169.10256410256,4167.05128205128,4182.4358974359,4170,4175.38461538462,4232.30769230769,4174.48717948718,4183.58974358974,4186.02564102564,4161.79487179487,4168.07692307692,4177.82051282051,0,0,2.97813013056625,0,2.82052564620972,0,0,0,0
88,0,1640,4174.61538461538,4201.92307692308,4171.15384615385,4168.58974358974,4186.15384615385,4169.48717948718,4175.38461538462,4233.46153846154,4170.51282051282,4185.89743589744,4183.46153846154,4160.25641025641,4171.66666666667,4177.4358974359,0,0,2.98601035121243,0,2.82052564620972,0,0,0,0
89,0,1225,4177.69230769231,4202.69230769231,4172.94871794872,4169.74358974359,4186.66666666667,4170.89743589744,4176.92307692308,4238.07692307692,4172.30769230769,4192.5641025641,4185.25641025641,4160.38461538462,4176.92307692308,4180.25641025641,0,0,2.99399057185861,0,2.82052564620972,0,0,0,0
90,0,3358,4177.69230769231,4207.4358974359,4170.89743589744,4168.58974358974,4183.20512820513,4172.17948717949,4179.35897435897,4233.46153846154,4173.71794871795,4192.17948717949,4186.02564102564,4161.66666666667,4182.82051282051,4180.64102564103,0,0,3.00197079250479,0,2.82052564620972,0,0,0,0
91,0,1323,4175.64102564103,4206.79487179487,4168.58974358974,4162.94871794872,4185.38461538462,4171.15384615385,4181.15384615385,4225.51282051282,4170.89743589744,4186.53846153846,4184.23076923077,4160,4186.28205128205,4178.46153846154,0,0,3.00995101315096,0,2.82052564620972,0,0,0,0
92,0,1640,4177.82051282051,4202.17948717949,4173.33333333333,4159.48717948718,4185.51282051282,4168.20512820513,4174.8717948718,4224.74358974359,4168.46153846154,4183.97435897436,4184.61538461538,4160.38461538462,4178.46153846154,4180.76923076923,0,0,3.01783123379714,0,2.82052564620972,0,0,0,0
93,0,1225,4176.79487179487,4200.38461538462,4169.35897435897,4157.94871794872,4177.17948717949,4167.30769230769,4168.46153846154,4223.84615384615,4168.97435897436,4184.74358974359,4181.41025641026,4158.46153846154,4169.74358974359,4178.07692307692,0,0,3.02571145444332,0,2.82052564620972,0,0,0,0
94,0,3358,4176.53846153846,4200.38461538462,4170.12820512821,4158.58974358974,4174.74358974359,4168.20512820513,4170.25641025641,4218.71794871795,4169.10256410256,4182.94871794872,4177.17948717949,4161.92307692308,4172.82051282051,4180.64102564103,0,0,3.0334916750895,0,2.82052564620972,0,0,0,0
95,0,1323,4181.15384615385,4204.48717948718,4172.69230769231,4166.15384615385,4182.4358974359,4168.71794871795,4171.15384615385,4219.48717948718,4169.48717948718,4183.58974358974,4179.10256410256,4163.20512820513,4177.69230769231,4183.84615384615,0,0,3.04127189573567,0,2.82052564620972,0,0,0,0
96,0,1640,4184.74358974359,4211.53846153846,4171.41025641026,4171.02564102564,4186.92307692308,4172.5641025641,4175.12820512821,4229.8717948718,4171.66666666667,4192.17948717949,4182.4358974359,4161.66666666667,4180.25641025641,4180.64102564103,0,0,3.04915211638185,0,2.82052564620972,0,0,0,0
97,0,1225,4182.17948717949,4208.46153846154,4176.41025641026,4167.30769230769,4187.82051282051,4177.4358974359,4186.02564102564,4235.25641025641,4172.82051282051,4194.74358974359,4183.84615384615,4164.8717948718,4180.12820512821,4182.17948717949,0,0,3.05713233702803,0,3.0730926990509,0,0,0,0
98,0,3358,4176.15384615385,4199.48717948718,4172.69230769231,4164.8717948718,4183.46153846154,4173.33333333333,4185.12820512821,4230.51282051282,4170.64102564103,4182.4358974359,4180.76923076923,4160.76923076923,4174.61538461538,4178.58974358974,0,0,3.06511255767421,0,3.0730926990509,0,0,0,0
99,0,1323,4178.20512820513,4200.89743589744,4170.38461538462,4166.28205128205,4176.28205128205,4167.05128205128,4175.76923076923,4226.02564102564,4166.79487179487,4174.10256410256,4177.5641025641,4160.51282051282,4171.41025641026,4176.53846153846,0,0,3.07309277832039,0,3.0730926990509,0,0,0,0
100,0,1640,4183.71794871795,4204.48717948718,4173.71794871795,4168.71794871795,4181.66666666667,4169.23076923077,4176.28205128205,4228.84615384615,4170.51282051282,4184.23076923077,4181.02564102564,4165.25641025641,4180.25641025641,4181.53846153846,0,0,3.08097299896656,0,3.0730926990509,0,0,0,0
101,0,1225,4186.02564102564,4202.05128205128,4173.97435897436,4172.17948717949,4191.28205128205,4174.48717948718,4181.53846153846,4232.05128205128,4177.05128205128,4193.46153846154,4188.33333333333,4165.76923076923,4188.46153846154,4184.74358974359,0,0,3.08885321961274,0,3.0730926990509,0,0,0,0
102,0,3358,4190,4203.97435897436,4178.46153846154,4171.15384615385,4186.92307692308,4173.33333333333,4177.4358974359,4225.76923076923,4173.33333333333,4187.30769230769,4187.05128205128,4165.76923076923,4184.23076923077,4184.74358974359,0,0,3.09663344025892,0,3.0730926990509,0,0,0,0
103,0,1323,4189.10256410256,4208.97435897436,4174.48717948718,4171.28205128205,4182.82051282051,4169.23076923077,4170.38461538462,4217.05128205128,4167.5641025641,4182.4358974359,4181.28205128205,4161.28205128205,4182.94871794872,4179.35897435897,0,0,3.1044136609051,0,3.0730926990509,0,0,0,0
104,0,1640,4182.69230769231,4206.66666666667,4172.4358974359,4171.66666666667,4184.8717948718,4168.84615384615,4171.79487179487,4218.20512820513,4167.94871794872,4184.35897435897,4183.71794871795,4161.66666666667,4182.82051282051,4177.82051282051,0,0,3.11229388155128,0,3.0730926990509,0,0,0,0
105,0,1225,4180.25641025641,4198.84615384615,4174.10256410256,4166.66666666667,4184.10256410256,4168.97435897436,4171.53846153846,4220.64102564103,4169.74358974359,4183.33333333333,4185.64102564103,4162.94871794872,4178.84615384615,4178.33333333333,0,0,3.12027410219745,0,3.0730926990509,0,0,0,0
106,0,3358,4183.20512820513,4196.41025641026,4170,4163.46153846154,4184.35897435897,4167.17948717949,4168.58974358974,4220,4171.28205128205,4182.82051282051,4184.61538461538,4159.48717948718,4179.23076923077,4176.92307692308,0,0,3.12825432284363,0,3.0730926990509,0,0,0,0
107,0,1323,4182.94871794872,4196.92307692308,4174.35897435897,4164.23076923077,4184.61538461538,4167.05128205128,4171.92307692308,4221.66666666667,4171.66666666667,4185.25641025641,4185.25641025641,4164.8717948718,4183.07692307692,4181.28205128205,0,0,3.13623454348981,0,3.0730926990509,0,0,0,0
108,0,1640,4176.41025641026,4191.53846153846,4174.61538461538,4166.53846153846,4182.5641025641,4168.84615384615,4172.30769230769,4218.71794871795,4168.07692307692,4185.38461538462,4185.38461538462,4164.23076923077,4187.17948717949,4178.58974358974,0,0,3.14411476413599,0,3.0730926990509,0,0,0,0
109,0,1225,4176.66666666667,4188.58974358974,4175,4168.07692307692,4183.20512820513,4169.35897435897,4170.51282051282,4216.41025641026,4167.17948717949,4182.30769230769,4184.35897435897,4158.20512820513,4186.15384615385,4173.33333333333,0,0,3.15199498478217,0,3.0730926990509,0,0,0,0
110,0,3358,4180.38461538462,4193.71794871795,4176.66666666667,4163.71794871795,4186.15384615385,4168.97435897436,4173.33333333333,4223.71794871795,4171.79487179487,4182.17948717949,4183.20512820513,4161.15384615385,4186.28205128205,4175.64102564103,0,0,3.15997520542834,0,3.0730926990509,0,0,0,0
111,0,1323,4178.84615384615,4199.48717948718,4169.8717948718,4159.8717948718,4186.02564102564,4168.33333333333,4173.46153846154,4227.30769230769,4173.07692307692,4188.33333333333,4183.20512820513,4162.82051282051,4195,4179.35897435897,0,0,3.16775542607452,0,3.0730926990509,0,0,0,0
112,0,1640,4184.8717948718,4203.97435897436,4174.23076923077,4167.05128205128,4183.97435897436,4166.53846153846,4167.4358974359,4220.89743589744,4170.12820512821,4190.64102564103,4186.28205128205,4166.92307692308,4204.8717948718,4186.28205128205,0,0,3.1756356467207,0,3.0730926990509,0,0,0,0
113,0,1225,4190.76923076923,4208.58974358974,4177.17948717949,4174.74358974359,4185,4166.28205128205,4166.28205128205,4215,4169.23076923077,4183.20512820513,4184.48717948718,4166.92307692308,4205.12820512821,4187.94871794872,0,0,3.18351586736688,0,3.0730926990509,0,0,0,0
114,0,3358,4186.66666666667,4205.51282051282,4174.35897435897,4170.64102564103,4186.28205128205,4166.02564102564,4170.76923076923,4213.07692307692,4166.79487179487,4175.76923076923,4174.8717948718,4163.33333333333,4192.30769230769,4181.02564102564,0,0,3.19129608801306,0,3.0730926990509,0,0,0,0
115,0,1323,4184.10256410256,4195.76923076923,4173.97435897436,4165.64102564103,4183.33333333333,4165.38461538462,4170.89743589744,4214.61538461538,4163.97435897436,4173.84615384615,4173.20512820513,4163.46153846154,4183.71794871795,4177.30769230769,0,0,3.19907630865923,0,3.0730926990509,0,0,0,0
116,0,1640,4185.25641025641,4197.94871794872,4171.02564102564,4168.58974358974,4184.61538461538,4167.82051282051,4170.12820512821,4220.89743589744,4169.61538461538,4180.76923076923,4178.58974358974,4163.07692307692,4194.10256410256,4178.97435897436,0,0,3.20695652930541,0,3.0730926990509,0,0,0,0
117,0,1225,4185.76923076923,4206.02564102564,4174.48717948718,4169.10256410256,4189.61538461538,4170.25641025641,4173.58974358974,4223.58974358974,4168.71794871795,4183.20512820513,4176.79487179487,4166.92307692308,4200.38461538462,4182.82051282051,0,0,3.21493674995159,0,3.0730926990509,0,0,0,0
118,0,3358,4184.35897435897,4202.30769230769,4173.20512820513,4166.66666666667,4187.69230769231,4169.61538461538,4173.07692307692,4216.28205128205,4157.30769230769,4173.07692307692,4168.46153846154,4162.82051282051,4189.74358974359,4176.79487179487,0,0,3.22291697059777,0,3.0730926990509,0,0,0,0
119,0,1323,4191.15384615385,4200.51282051282,4173.71794871795,4169.23076923077,4186.15384615385,4169.61538461538,4171.41025641026,4216.79487179487,4160.76923076923,4170.89743589744,4168.20512820513,4160.38461538462,4188.97435897436,4175.64102564103,0,0,3.23089719124394,0,3.0730926990509,0,0,0,0
120,0,1640,4197.5641025641,4208.97435897436,4181.53846153846,4172.94871794872,4188.84615384615,4170.38461538462,4174.74358974359,4227.94871794872,4168.71794871795,4181.53846153846,4173.71794871795,4167.5641025641,4197.05128205128,4183.58974358974,0,0,3.23877741189012,0,3.0730926990509,0,0,0,0
121,0,1225,4192.82051282051,4212.82051282051,4178.46153846154,4176.28205128205,4194.10256410256,4168.84615384615,4174.48717948718,4228.97435897436,4163.20512820513,4188.20512820513,4173.97435897436,4165.38461538462,4196.15384615385,4182.69230769231,0,0,3.2466576325363,0,3.0730926990509,0,0,0,0
122,0,3358,4196.53846153846,4216.41025641026,4180.25641025641,4184.23076923077,4197.82051282051,4168.46153846154,4170.51282051282,4218.97435897436,4157.82051282051,4184.10256410256,4171.53846153846,4167.82051282051,4196.28205128205,4185.12820512821,0,0,3.25443785318248,0,3.0730926990509,0,0,0,0
123,0,1323,4200,4220.25641025641,4178.71794871795,4183.33333333333,4193.97435897436,4168.58974358974,4168.58974358974,4215.51282051282,4160.12820512821,4177.5641025641,4168.84615384615,4170.76923076923,4201.79487179487,4187.30769230769,0,0,3.26221807382866,0,3.0730926990509,0,0,0,0
124,0,1640,4189.10256410256,4210.76923076923,4172.17948717949,4170.38461538462,4187.82051282051,4167.82051282051,4169.10256410256,4218.58974358974,4164.8717948718,4179.8717948718,4169.8717948718,4166.79487179487,4203.20512820513,4182.4358974359,0,0,3.27009829447483,0,3.0730926990509,0,0,0,0
125,0,1225,4180.38461538462,4198.84615384615,4174.23076923077,4164.74358974359,4186.66666666667,4169.10256410256,4171.02564102564,4219.35897435897,4166.53846153846,4184.10256410256,4172.5641025641,4166.66666666667,4197.05128205128,4181.02564102564,0,0,3.27807851512101,0,3.0730926990509,0,0,0,0
126,0,3358,4183.46153846154,4200.51282051282,4171.41025641026,4167.30769230769,4186.92307692308,4169.8717948718,4169.74358974359,4215.76923076923,4162.94871794872,4179.35897435897,4166.41025641026,4165,4186.53846153846,4178.20512820513,0,0,3.28605873576719,0,3.0730926990509,0,0,0,0
127,0,54,4191.28205128205,4204.48717948718,4171.53846153846,4168.58974358974,4183.33333333333,4169.23076923077,4168.71794871795,4209.10256410256,4157.30769230769,4171.79487179487,4161.92307692308,4164.8717948718,4181.41025641026,4180.51282051282,0,0,3.29403895641337,0,3.0730926990509,0,0,0,0
0,0,983,4190.25641025641,4201.02564102564,4173.33333333333,4170,4183.46153846154,4169.10256410256,4169.10256410256,4203.33333333333,4154.35897435897,4172.05128205128,4165.12820512821,4161.15384615385,4185.89743589744,4182.05128205128,0,0,3.30191917705955,0,3.0730926990509,0,0,0,0
1,0,3297,4183.20512820513,4200.64102564103,4171.41025641026,4168.58974358974,4184.35897435897,4166.92307692308,4162.05128205128,4200.89743589744,4151.92307692308,4171.02564102564,4164.61538461538,4155.76923076923,4184.74358974359,4176.28205128205,0,0,3.30979939770572,0,3.0730926990509,0,0,0,0
2,0,2335,4184.23076923077,4201.66666666667,4175.25641025641,4165.51282051282,4180.12820512821,4165.76923076923,4157.17948717949,4200.64102564103,4151.66666666667,4165.64102564103,4162.17948717949,4161.41025641026,4182.4358974359,4177.94871794872,0,0,3.3175796183519,0,3.0730926990509,0,0,0,0
3,0,3076,4188.07692307692,4196.66666666667,4173.58974358974,4167.4358974359,4180.89743589744,4166.66666666667,4165.51282051282,4204.48717948718,4155.51282051282,4168.97435897436,4166.41025641026,4162.94871794872,4188.33333333333,4180.38461538462,0,0,3.32535983899808,0,3.0730926990509,0,0,0,0
4,0,3565,4190.76923076923,4200.38461538462,4173.33333333333,4170.76923076923,4184.61538461538,4167.4358974359,4171.02564102564,4206.66666666667,4155.25641025641,4171.66666666667,4170.64102564103,4161.92307692308,4188.46153846154,4179.48717948718,0,0,3.33324005964426,0,3.0730926990509,0,0,0,0
